File: Figure1/UV-vis/Sample345.Sample.csv
Created as New Dataset,
nm,A
800.0,-0.0133
799.2,-0.0142
798.4,-0.0136
797.6,-0.0153
796.8,-0.0149
796.0,-0.0141
795.2,-0.0153
794.4,-0.0161
793.6,-0.0154
792.8,-0.0166
792.0,-0.0171
791.2,-0.0176
790.4,-0.0186
789.6,-0.0191
788.8,-0.0195
788.0,-0.0191
787.2,-0.0191
786.4,-0.0199
785.6,-0.0203
784.8,-0.0203
784.0,-0.0202
783.2,-0.0199
782.4,-0.0196
781.6,-0.0204
780.8,-0.0203
780.0,-0.0196
779.2,-0.0193
778.4,-0.0203
777.6,-0.0191
776.8,-0.0199
776.0,-0.0201
775.2,-0.0200
774.4,-0.0202
773.6,-0.0193
772.8,-0.0199
772.0,-0.0196
771.2,-0.0198
770.4,-0.0200
769.6,-0.0191
768.8,-0.0176
768.0,-0.0166
767.2,-0.0161
766.4,-0.0151
765.6,-0.0146
764.8,-0.0130
764.0,-0.0129
763.2,-0.0118
762.4,-0.0111
761.6,-0.0115
760.8,-0.0116
760.0,-0.0120
759.2,-0.0126
758.4,-0.0142
757.6,-0.0159
756.8,-0.0173
756.0,-0.0187
755.2,-0.0203
754.4,-0.0223
753.6,-0.0226
752.8,-0.0241
752.0,-0.0252
751.2,-0.0259
750.4,-0.0266
749.6,-0.0269
748.8,-0.0274
748.0,-0.0276
747.2,-0.0271
746.4,-0.0274
745.6,-0.0267
744.8,-0.0270
744.0,-0.0276
743.2,-0.0268
742.4,-0.0278
741.6,-0.0276
740.8,-0.0279
740.0,-0.0278
739.2,-0.0274
738.4,-0.0264
737.6,-0.0253
736.8,-0.0245
736.0,-0.0234
735.2,-0.0221
734.4,-0.0204
733.6,-0.0192
732.8,-0.0184
732.0,-0.0174
731.2,-0.0168
730.4,-0.0171
729.6,-0.0174
728.8,-0.0182
728.0,-0.0188
727.2,-0.0201
726.4,-0.0210
725.6,-0.0224
724.8,-0.0229
724.0,-0.0240
723.2,-0.0244
722.4,-0.0246
721.6,-0.0248
720.8,-0.0251
720.0,-0.0251
719.2,-0.0259
718.4,-0.0255
717.6,-0.0251
716.8,-0.0246
716.0,-0.0231
715.2,-0.0226
714.4,-0.0211
713.6,-0.0204
712.8,-0.0197
712.0,-0.0191
711.2,-0.0196
710.4,-0.0209
709.6,-0.0216
708.8,-0.0232
708.0,-0.0238
707.2,-0.0249
706.4,-0.0258
705.6,-0.0257
704.8,-0.0264
704.0,-0.0276
703.2,-0.0278
702.4,-0.0274
701.6,-0.0263
700.8,-0.0269
700.0,-0.0247
699.2,-0.0241
698.4,-0.0220
697.6,-0.0208
696.8,-0.0191
696.0,-0.0190
695.2,-0.0185
694.4,-0.0183
693.6,-0.0186
692.8,-0.0186
692.0,-0.0191
691.2,-0.0199
690.4,-0.0203
689.6,-0.0221
688.8,-0.0214
688.0,-0.0235
687.2,-0.0237
686.4,-0.0237
685.6,-0.0251
684.8,-0.0249
684.0,-0.0255
683.2,-0.0253
682.4,-0.0247
681.6,-0.0251
680.8,-0.0260
680.0,-0.0261
679.2,-0.0266
678.4,-0.0260
677.6,-0.0266
676.8,-0.0267
676.0,-0.0267
675.2,-0.0270
674.4,-0.0269
673.6,-0.0263
672.8,-0.0265
672.0,-0.0270
671.2,-0.0261
670.4,-0.0263
669.6,-0.0263
668.8,-0.0258
668.0,-0.0255
667.2,-0.0251
666.4,-0.0249
665.6,-0.0248
664.8,-0.0250
664.0,-0.0247
663.2,-0.0246
662.4,-0.0248
661.6,-0.0244
660.8,-0.0248
660.0,-0.0241
659.2,-0.0241
658.4,-0.0244
657.6,-0.0246
656.8,-0.0245
656.0,-0.0240
655.2,-0.0247
654.4,-0.0246
653.6,-0.0249
652.8,-0.0254
652.0,-0.0253
651.2,-0.0253
650.4,-0.0252
649.6,-0.0258
648.8,-0.0261
648.0,-0.0262
647.2,-0.0268
646.4,-0.0267
645.6,-0.0275
644.8,-0.0274
644.0,-0.0275
643.2,-0.0283
642.4,-0.0283
641.6,-0.0292
640.8,-0.0285
640.0,-0.0293
639.2,-0.0301
638.4,-0.0297
637.6,-0.0309
636.8,-0.0306
636.0,-0.0317
635.2,-0.0314
634.4,-0.0326
633.6,-0.0323
632.8,-0.0325
632.0,-0.0335
631.2,-0.0338
630.4,-0.0341
629.6,-0.0342
628.8,-0.0345
628.0,-0.0350
627.2,-0.0351
626.4,-0.0357
625.6,-0.0362
624.8,-0.0362
624.0,-0.0368
623.2,-0.0371
622.4,-0.0370
621.6,-0.0379
620.8,-0.0373
620.0,-0.0380
619.2,-0.0383
618.4,-0.0389
617.6,-0.0387
616.8,-0.0390
616.0,-0.0397
615.2,-0.0395
614.4,-0.0396
613.6,-0.0399
612.8,-0.0403
612.0,-0.0404
611.2,-0.0408
610.4,-0.0408
609.6,-0.0410
608.8,-0.0406
608.0,-0.0406
607.2,-0.0412
606.4,-0.0408
605.6,-0.0409
604.8,-0.0407
604.0,-0.0407
603.2,-0.0407
602.4,-0.0406
601.6,-0.0405
600.8,-0.0406
600.0,-0.0407
599.2,-0.0403
598.4,-0.0403
597.6,-0.0405
596.8,-0.0409
596.0,-0.0403
595.2,-0.0405
594.4,-0.0406
593.6,-0.0411
592.8,-0.0410
592.0,-0.0403
591.2,-0.0410
590.4,-0.0409
589.6,-0.0407
588.8,-0.0414
588.0,-0.0412
587.2,-0.0414
586.4,-0.0417
585.6,-0.0420
584.8,-0.0421
584.0,-0.0427
583.2,-0.0425
582.4,-0.0430
581.6,-0.0433
580.8,-0.0430
580.0,-0.0434