File: Figure1/UV-vis/Sample338.Sample.csv
Created as New Dataset,
nm,A
800.0,0.0002
799.2,-0.0004
798.4,0.0008
797.6,-0.0002
796.8,-0.0002
796.0,0.0007
795.2,-0.0000
794.4,-0.0001
793.6,0.0013
792.8,-0.0000
792.0,0.0002
791.2,-0.0005
790.4,0.0005
789.6,-0.0004
788.8,0.0000
788.0,-0.0001
787.2,0.0003
786.4,-0.0002
785.6,-0.0004
784.8,0.0008
784.0,0.0003
783.2,0.0004
782.4,0.0007
781.6,-0.0004
780.8,0.0006
780.0,0.0011
779.2,0.0007
778.4,0.0008
777.6,0.0007
776.8,0.0002
776.0,0.0003
775.2,0.0011
774.4,0.0002
773.6,0.0003
772.8,0.0010
772.0,0.0007
771.2,0.0004
770.4,0.0003
769.6,0.0004
768.8,0.0013
768.0,0.0012
767.2,0.0009
766.4,0.0015
765.6,0.0003
764.8,0.0008
764.0,0.0009
763.2,0.0013
762.4,0.0016
761.6,0.0011
760.8,0.0018
760.0,0.0012
759.2,0.0016
758.4,0.0008
757.6,0.0005
756.8,0.0012
756.0,0.0009
755.2,0.0015
754.4,0.0015
753.6,0.0013
752.8,0.0016
752.0,0.0018
751.2,0.0008
750.4,0.0013
749.6,0.0015
748.8,0.0016
748.0,0.0010
747.2,0.0010
746.4,0.0009
745.6,0.0017
744.8,0.0016
744.0,0.0016
743.2,0.0018
742.4,0.0015
741.6,0.0015
740.8,0.0019
740.0,0.0017
739.2,0.0010
738.4,0.0016
737.6,0.0018
736.8,0.0024
736.0,0.0018
735.2,0.0020
734.4,0.0022
733.6,0.0016
732.8,0.0017
732.0,0.0014
731.2,0.0017
730.4,0.0026
729.6,0.0024
728.8,0.0017
728.0,0.0020
727.2,0.0023
726.4,0.0020
725.6,0.0017
724.8,0.0019
724.0,0.0018
723.2,0.0024
722.4,0.0024
721.6,0.0023
720.8,0.0023
720.0,0.0021
719.2,0.0022
718.4,0.0029
717.6,0.0025
716.8,0.0025
716.0,0.0023
715.2,0.0017
714.4,0.0023
713.6,0.0025
712.8,0.0022
712.0,0.0026
711.2,0.0031
710.4,0.0028
709.6,0.0033
708.8,0.0029
708.0,0.0025
707.2,0.0028
706.4,0.0018
705.6,0.0026
704.8,0.0036
704.0,0.0030
703.2,0.0033
702.4,0.0034
701.6,0.0030
700.8,0.0029
700.0,0.0029
699.2,0.0028
698.4,0.0034
697.6,0.0032
696.8,0.0038
696.0,0.0037
695.2,0.0033
694.4,0.0033
693.6,0.0035
692.8,0.0035
692.0,0.0037
691.2,0.0040
690.4,0.0037
689.6,0.0035
688.8,0.0041
688.0,0.0036
687.2,0.0037
686.4,0.0042
685.6,0.0038
684.8,0.0041
684.0,0.0039
683.2,0.0046
682.4,0.0042
681.6,0.0043
680.8,0.0040
680.0,0.0043
679.2,0.0044
678.4,0.0047
677.6,0.0047
676.8,0.0046
676.0,0.0051
675.2,0.0048
674.4,0.0050
673.6,0.0049
672.8,0.0053
672.0,0.0050
671.2,0.0049
670.4,0.0050
669.6,0.0052
668.8,0.0053
668.0,0.0054
667.2,0.0057
666.4,0.0053
665.6,0.0054
664.8,0.0049
664.0,0.0053
663.2,0.0050
662.4,0.0050
661.6,0.0053
660.8,0.0049
660.0,0.0051
659.2,0.0052
658.4,0.0052
657.6,0.0050
656.8,0.0053
656.0,0.0050
655.2,0.0042
654.4,0.0047
653.6,0.0044
652.8,0.0042
652.0,0.0046
651.2,0.0048
650.4,0.0051
649.6,0.0043
648.8,0.0042
648.0,0.0046
647.2,0.0042
646.4,0.0045
645.6,0.0040
644.8,0.0047
644.0,0.0041
643.2,0.0038
642.4,0.0048
641.6,0.0037
640.8,0.0045
640.0,0.0042
639.2,0.0038
638.4,0.0044
637.6,0.0037
636.8,0.0045
636.0,0.0040
635.2,0.0040
634.4,0.0043
633.6,0.0039
632.8,0.0043
632.0,0.0040
631.2,0.0040
630.4,0.0042
629.6,0.0038
628.8,0.0042
628.0,0.0045
627.2,0.0044
626.4,0.0043
625.6,0.0041
624.8,0.0041
624.0,0.0039
623.2,0.0040
622.4,0.0040
621.6,0.0038
620.8,0.0043
620.0,0.0042
619.2,0.0042
618.4,0.0039
617.6,0.0043
616.8,0.0039
616.0,0.0035
615.2,0.0039
614.4,0.0040
613.6,0.0036
612.8,0.0037
612.0,0.0037
611.2,0.0035
610.4,0.0035
609.6,0.0030
608.8,0.0032
608.0,0.0036
607.2,0.0031
606.4,0.0027
605.6,0.0028
604.8,0.0029
604.0,0.0028
603.2,0.0028
602.4,0.0028
601.6,0.0024
600.8,0.0026
600.0,0.0022
599.2,0.0024
598.4,0.0021
597.6,0.0022
596.8,0.0014
596.0,0.0014
595.2,0.0018
594.4,0.0014
593.6,0.0010
592.8,0.0012
592.0,0.0012
591.2,0.0007
590.4,0.0007
589.6,0.0008
588.8,0.0005
588.0,0.0004
587.2,0.0002
586.4,0.0006
585.6,-0.0001
584.8,-0.0000
584.0,-0.0002
583.2,-0.0004
582.4,-0.0006
581.6,-0.0007
580.8,-0.0006
580.0,-0.0011