File: Figure1/UV-vis/Sample343.Sample.csv
Created as New Dataset,
nm,A
800.0,-0.0146
799.2,-0.0141
798.4,-0.0149
797.6,-0.0157
796.8,-0.0158
796.0,-0.0158
795.2,-0.0163
794.4,-0.0164
793.6,-0.0170
792.8,-0.0172
792.0,-0.0175
791.2,-0.0187
790.4,-0.0190
789.6,-0.0200
788.8,-0.0201
788.0,-0.0197
787.2,-0.0198
786.4,-0.0211
785.6,-0.0214
784.8,-0.0211
784.0,-0.0208
783.2,-0.0208
782.4,-0.0210
781.6,-0.0221
780.8,-0.0217
780.0,-0.0205
779.2,-0.0203
778.4,-0.0208
777.6,-0.0211
776.8,-0.0202
776.0,-0.0202
775.2,-0.0212
774.4,-0.0218
773.6,-0.0209
772.8,-0.0209
772.0,-0.0205
771.2,-0.0208
770.4,-0.0201
769.6,-0.0198
768.8,-0.0186
768.0,-0.0180
767.2,-0.0177
766.4,-0.0163
765.6,-0.0157
764.8,-0.0141
764.0,-0.0135
763.2,-0.0128
762.4,-0.0122
761.6,-0.0123
760.8,-0.0122
760.0,-0.0132
759.2,-0.0143
758.4,-0.0159
757.6,-0.0177
756.8,-0.0181
756.0,-0.0206
755.2,-0.0213
754.4,-0.0229
753.6,-0.0249
752.8,-0.0259
752.0,-0.0267
751.2,-0.0275
750.4,-0.0270
749.6,-0.0281
748.8,-0.0282
748.0,-0.0286
747.2,-0.0284
746.4,-0.0284
745.6,-0.0275
744.8,-0.0286
744.0,-0.0285
743.2,-0.0283
742.4,-0.0287
741.6,-0.0284
740.8,-0.0288
740.0,-0.0290
739.2,-0.0290
738.4,-0.0277
737.6,-0.0269
736.8,-0.0253
736.0,-0.0238
735.2,-0.0231
734.4,-0.0211
733.6,-0.0203
732.8,-0.0196
732.0,-0.0181
731.2,-0.0183
730.4,-0.0177
729.6,-0.0189
728.8,-0.0193
728.0,-0.0204
727.2,-0.0219
726.4,-0.0219
725.6,-0.0234
724.8,-0.0244
724.0,-0.0249
723.2,-0.0254
722.4,-0.0253
721.6,-0.0260
720.8,-0.0263
720.0,-0.0270
719.2,-0.0266
718.4,-0.0268
717.6,-0.0265
716.8,-0.0252
716.0,-0.0245
715.2,-0.0235
714.4,-0.0220
713.6,-0.0213
712.8,-0.0207
712.0,-0.0201
711.2,-0.0200
710.4,-0.0218
709.6,-0.0228
708.8,-0.0246
708.0,-0.0252
707.2,-0.0261
706.4,-0.0273
705.6,-0.0274
704.8,-0.0277
704.0,-0.0282
703.2,-0.0287
702.4,-0.0285
701.6,-0.0277
700.8,-0.0275
700.0,-0.0261
699.2,-0.0246
698.4,-0.0232
697.6,-0.0222
696.8,-0.0202
696.0,-0.0195
695.2,-0.0198
694.4,-0.0193
693.6,-0.0193
692.8,-0.0198
692.0,-0.0200
691.2,-0.0205
690.4,-0.0212
689.6,-0.0226
688.8,-0.0234
688.0,-0.0243
687.2,-0.0250
686.4,-0.0249
685.6,-0.0257
684.8,-0.0263
684.0,-0.0262
683.2,-0.0265
682.4,-0.0264
681.6,-0.0266
680.8,-0.0269
680.0,-0.0274
679.2,-0.0273
678.4,-0.0271
677.6,-0.0276
676.8,-0.0278
676.0,-0.0278
675.2,-0.0278
674.4,-0.0276
673.6,-0.0278
672.8,-0.0274
672.0,-0.0280
671.2,-0.0272
670.4,-0.0274
669.6,-0.0274
668.8,-0.0267
668.0,-0.0267
667.2,-0.0260
666.4,-0.0264
665.6,-0.0261
664.8,-0.0259
664.0,-0.0260
663.2,-0.0259
662.4,-0.0261
661.6,-0.0257
660.8,-0.0258
660.0,-0.0256
659.2,-0.0250
658.4,-0.0259
657.6,-0.0255
656.8,-0.0253
656.0,-0.0257
655.2,-0.0258
654.4,-0.0256
653.6,-0.0262
652.8,-0.0263
652.0,-0.0263
651.2,-0.0263
650.4,-0.0262
649.6,-0.0274
648.8,-0.0275
648.0,-0.0272
647.2,-0.0277
646.4,-0.0278
645.6,-0.0282
644.8,-0.0277
644.0,-0.0288
643.2,-0.0294
642.4,-0.0293
641.6,-0.0300
640.8,-0.0297
640.0,-0.0309
639.2,-0.0314
638.4,-0.0315
637.6,-0.0319
636.8,-0.0322
636.0,-0.0330
635.2,-0.0326
634.4,-0.0337
633.6,-0.0336
632.8,-0.0336
632.0,-0.0343
631.2,-0.0353
630.4,-0.0352
629.6,-0.0355
628.8,-0.0355
628.0,-0.0359
627.2,-0.0360
626.4,-0.0368
625.6,-0.0375
624.8,-0.0373
624.0,-0.0375
623.2,-0.0380
622.4,-0.0386
621.6,-0.0386
620.8,-0.0387
620.0,-0.0394
619.2,-0.0395
618.4,-0.0401
617.6,-0.0397
616.8,-0.0402
616.0,-0.0405
615.2,-0.0408
614.4,-0.0407
613.6,-0.0412
612.8,-0.0413
612.0,-0.0411
611.2,-0.0414
610.4,-0.0417
609.6,-0.0419
608.8,-0.0416
608.0,-0.0414
607.2,-0.0421
606.4,-0.0420
605.6,-0.0420
604.8,-0.0418
604.0,-0.0420
603.2,-0.0418
602.4,-0.0415
601.6,-0.0416
600.8,-0.0417
600.0,-0.0416
599.2,-0.0414
598.4,-0.0413
597.6,-0.0413
596.8,-0.0416
596.0,-0.0416
595.2,-0.0415
594.4,-0.0414
593.6,-0.0420
592.8,-0.0418
592.0,-0.0416
591.2,-0.0418
590.4,-0.0421
589.6,-0.0423
588.8,-0.0424
588.0,-0.0425
587.2,-0.0427
586.4,-0.0428
585.6,-0.0433
584.8,-0.0431
584.0,-0.0436
583.2,-0.0439
582.4,-0.0443
581.6,-0.0446
580.8,-0.0441
580.0,-0.0443