File: Figure1/UV-vis/Sample341.Sample.csv
Created as New Dataset,
nm,A
800.0,0.0034
799.2,0.0031
798.4,0.0046
797.6,0.0026
796.8,0.0033
796.0,0.0043
795.2,0.0044
794.4,0.0040
793.6,0.0038
792.8,0.0033
792.0,0.0043
791.2,0.0044
790.4,0.0042
789.6,0.0032
788.8,0.0039
788.0,0.0036
787.2,0.0032
786.4,0.0040
785.6,0.0027
784.8,0.0043
784.0,0.0043
783.2,0.0041
782.4,0.0043
781.6,0.0032
780.8,0.0033
780.0,0.0040
779.2,0.0046
778.4,0.0042
777.6,0.0036
776.8,0.0037
776.0,0.0033
775.2,0.0045
774.4,0.0034
773.6,0.0042
772.8,0.0040
772.0,0.0042
771.2,0.0038
770.4,0.0033
769.6,0.0037
768.8,0.0042
768.0,0.0047
767.2,0.0040
766.4,0.0044
765.6,0.0039
764.8,0.0048
764.0,0.0044
763.2,0.0043
762.4,0.0050
761.6,0.0046
760.8,0.0045
760.0,0.0050
759.2,0.0047
758.4,0.0047
757.6,0.0045
756.8,0.0046
756.0,0.0047
755.2,0.0047
754.4,0.0042
753.6,0.0047
752.8,0.0048
752.0,0.0042
751.2,0.0045
750.4,0.0046
749.6,0.0048
748.8,0.0047
748.0,0.0041
747.2,0.0052
746.4,0.0043
745.6,0.0050
744.8,0.0048
744.0,0.0048
743.2,0.0059
742.4,0.0052
741.6,0.0050
740.8,0.0052
740.0,0.0048
739.2,0.0048
738.4,0.0051
737.6,0.0047
736.8,0.0053
736.0,0.0053
735.2,0.0060
734.4,0.0052
733.6,0.0054
732.8,0.0042
732.0,0.0049
731.2,0.0058
730.4,0.0058
729.6,0.0056
728.8,0.0055
728.0,0.0050
727.2,0.0054
726.4,0.0054
725.6,0.0054
724.8,0.0058
724.0,0.0052
723.2,0.0057
722.4,0.0060
721.6,0.0054
720.8,0.0056
720.0,0.0054
719.2,0.0055
718.4,0.0061
717.6,0.0059
716.8,0.0061
716.0,0.0057
715.2,0.0055
714.4,0.0059
713.6,0.0059
712.8,0.0057
712.0,0.0063
711.2,0.0067
710.4,0.0063
709.6,0.0065
708.8,0.0060
708.0,0.0059
707.2,0.0063
706.4,0.0066
705.6,0.0068
704.8,0.0067
704.0,0.0062
703.2,0.0061
702.4,0.0067
701.6,0.0071
700.8,0.0066
700.0,0.0067
699.2,0.0065
698.4,0.0062
697.6,0.0068
696.8,0.0070
696.0,0.0070
695.2,0.0068
694.4,0.0069
693.6,0.0069
692.8,0.0066
692.0,0.0069
691.2,0.0070
690.4,0.0074
689.6,0.0068
688.8,0.0073
688.0,0.0068
687.2,0.0071
686.4,0.0071
685.6,0.0073
684.8,0.0075
684.0,0.0072
683.2,0.0078
682.4,0.0076
681.6,0.0076
680.8,0.0075
680.0,0.0076
679.2,0.0077
678.4,0.0083
677.6,0.0081
676.8,0.0081
676.0,0.0085
675.2,0.0084
674.4,0.0082
673.6,0.0082
672.8,0.0084
672.0,0.0085
671.2,0.0085
670.4,0.0085
669.6,0.0082
668.8,0.0092
668.0,0.0088
667.2,0.0091
666.4,0.0088
665.6,0.0088
664.8,0.0087
664.0,0.0088
663.2,0.0090
662.4,0.0086
661.6,0.0084
660.8,0.0082
660.0,0.0088
659.2,0.0089
658.4,0.0087
657.6,0.0080
656.8,0.0083
656.0,0.0081
655.2,0.0079
654.4,0.0085
653.6,0.0077
652.8,0.0073
652.0,0.0079
651.2,0.0084
650.4,0.0083
649.6,0.0079
648.8,0.0077
648.0,0.0078
647.2,0.0074
646.4,0.0080
645.6,0.0074
644.8,0.0081
644.0,0.0076
643.2,0.0074
642.4,0.0072
641.6,0.0075
640.8,0.0078
640.0,0.0075
639.2,0.0073
638.4,0.0074
637.6,0.0068
636.8,0.0079
636.0,0.0072
635.2,0.0078
634.4,0.0075
633.6,0.0077
632.8,0.0076
632.0,0.0072
631.2,0.0074
630.4,0.0075
629.6,0.0076
628.8,0.0076
628.0,0.0076
627.2,0.0077
626.4,0.0072
625.6,0.0072
624.8,0.0073
624.0,0.0078
623.2,0.0074
622.4,0.0075
621.6,0.0075
620.8,0.0080
620.0,0.0075
619.2,0.0077
618.4,0.0073
617.6,0.0076
616.8,0.0069
616.0,0.0071
615.2,0.0072
614.4,0.0076
613.6,0.0068
612.8,0.0072
612.0,0.0071
611.2,0.0069
610.4,0.0067
609.6,0.0067
608.8,0.0068
608.0,0.0064
607.2,0.0062
606.4,0.0065
605.6,0.0063
604.8,0.0063
604.0,0.0060
603.2,0.0059
602.4,0.0056
601.6,0.0055
600.8,0.0059
600.0,0.0057
599.2,0.0053
598.4,0.0053
597.6,0.0052
596.8,0.0049
596.0,0.0049
595.2,0.0049
594.4,0.0047
593.6,0.0044
592.8,0.0039
592.0,0.0044
591.2,0.0040
590.4,0.0042
589.6,0.0040
588.8,0.0039
588.0,0.0040
587.2,0.0037
586.4,0.0035
585.6,0.0033
584.8,0.0032
584.0,0.0030
583.2,0.0028
582.4,0.0028
581.6,0.0025
580.8,0.0028
580.0,0.0025