File: Figure1/UV-vis/Sample347.Sample.csv
Created as New Dataset,
nm,A
800.0,0.0067
799.2,0.0067
798.4,0.0074
797.6,0.0064
796.8,0.0062
796.0,0.0078
795.2,0.0072
794.4,0.0070
793.6,0.0073
792.8,0.0083
792.0,0.0072
791.2,0.0078
790.4,0.0068
789.6,0.0061
788.8,0.0062
788.0,0.0071
787.2,0.0071
786.4,0.0079
785.6,0.0066
784.8,0.0071
784.0,0.0083
783.2,0.0081
782.4,0.0073
781.6,0.0065
780.8,0.0071
780.0,0.0067
779.2,0.0075
778.4,0.0076
777.6,0.0081
776.8,0.0079
776.0,0.0075
775.2,0.0081
774.4,0.0069
773.6,0.0074
772.8,0.0072
772.0,0.0081
771.2,0.0073
770.4,0.0069
769.6,0.0070
768.8,0.0082
768.0,0.0075
767.2,0.0076
766.4,0.0078
765.6,0.0071
764.8,0.0080
764.0,0.0076
763.2,0.0086
762.4,0.0084
761.6,0.0080
760.8,0.0083
760.0,0.0078
759.2,0.0079
758.4,0.0085
757.6,0.0080
756.8,0.0081
756.0,0.0082
755.2,0.0082
754.4,0.0079
753.6,0.0085
752.8,0.0085
752.0,0.0074
751.2,0.0083
750.4,0.0083
749.6,0.0085
748.8,0.0080
748.0,0.0080
747.2,0.0084
746.4,0.0080
745.6,0.0086
744.8,0.0077
744.0,0.0082
743.2,0.0090
742.4,0.0078
741.6,0.0086
740.8,0.0085
740.0,0.0086
739.2,0.0081
738.4,0.0081
737.6,0.0082
736.8,0.0089
736.0,0.0086
735.2,0.0087
734.4,0.0096
733.6,0.0090
732.8,0.0090
732.0,0.0090
731.2,0.0091
730.4,0.0102
729.6,0.0097
728.8,0.0088
728.0,0.0090
727.2,0.0096
726.4,0.0092
725.6,0.0088
724.8,0.0087
724.0,0.0084
723.2,0.0093
722.4,0.0094
721.6,0.0094
720.8,0.0094
720.0,0.0092
719.2,0.0093
718.4,0.0100
717.6,0.0092
716.8,0.0101
716.0,0.0089
715.2,0.0094
714.4,0.0093
713.6,0.0094
712.8,0.0095
712.0,0.0103
711.2,0.0103
710.4,0.0103
709.6,0.0109
708.8,0.0100
708.0,0.0105
707.2,0.0104
706.4,0.0100
705.6,0.0107
704.8,0.0111
704.0,0.0108
703.2,0.0102
702.4,0.0106
701.6,0.0112
700.8,0.0106
700.0,0.0109
699.2,0.0103
698.4,0.0108
697.6,0.0106
696.8,0.0119
696.0,0.0116
695.2,0.0111
694.4,0.0111
693.6,0.0111
692.8,0.0112
692.0,0.0115
691.2,0.0115
690.4,0.0122
689.6,0.0117
688.8,0.0122
688.0,0.0114
687.2,0.0124
686.4,0.0129
685.6,0.0123
684.8,0.0124
684.0,0.0128
683.2,0.0131
682.4,0.0127
681.6,0.0132
680.8,0.0127
680.0,0.0137
679.2,0.0131
678.4,0.0136
677.6,0.0136
676.8,0.0135
676.0,0.0141
675.2,0.0139
674.4,0.0140
673.6,0.0145
672.8,0.0148
672.0,0.0146
671.2,0.0148
670.4,0.0147
669.6,0.0142
668.8,0.0153
668.0,0.0148
667.2,0.0151
666.4,0.0151
665.6,0.0151
664.8,0.0147
664.0,0.0149
663.2,0.0151
662.4,0.0146
661.6,0.0148
660.8,0.0143
660.0,0.0150
659.2,0.0147
658.4,0.0144
657.6,0.0141
656.8,0.0140
656.0,0.0143
655.2,0.0143
654.4,0.0141
653.6,0.0136
652.8,0.0131
652.0,0.0135
651.2,0.0140
650.4,0.0140
649.6,0.0132
648.8,0.0132
648.0,0.0137
647.2,0.0137
646.4,0.0140
645.6,0.0134
644.8,0.0141
644.0,0.0138
643.2,0.0135
642.4,0.0139
641.6,0.0140
640.8,0.0139
640.0,0.0139
639.2,0.0135
638.4,0.0141
637.6,0.0138
636.8,0.0145
636.0,0.0140
635.2,0.0145
634.4,0.0142
633.6,0.0143
632.8,0.0143
632.0,0.0142
631.2,0.0146
630.4,0.0147
629.6,0.0145
628.8,0.0148
628.0,0.0151
627.2,0.0158
626.4,0.0155
625.6,0.0150
624.8,0.0152
624.0,0.0154
623.2,0.0153
622.4,0.0154
621.6,0.0154
620.8,0.0158
620.0,0.0158
619.2,0.0157
618.4,0.0153
617.6,0.0159
616.8,0.0153
616.0,0.0153
615.2,0.0153
614.4,0.0157
613.6,0.0153
612.8,0.0151
612.0,0.0150
611.2,0.0150
610.4,0.0147
609.6,0.0148
608.8,0.0149
608.0,0.0151
607.2,0.0141
606.4,0.0142
605.6,0.0142
604.8,0.0140
604.0,0.0137
603.2,0.0136
602.4,0.0136
601.6,0.0137
600.8,0.0131
600.0,0.0132
599.2,0.0134
598.4,0.0132
597.6,0.0128
596.8,0.0124
596.0,0.0122
595.2,0.0125
594.4,0.0126
593.6,0.0121
592.8,0.0124
592.0,0.0122
591.2,0.0122
590.4,0.0119
589.6,0.0118
588.8,0.0119
588.0,0.0118
587.2,0.0116
586.4,0.0117
585.6,0.0113
584.8,0.0116
584.0,0.0109
583.2,0.0110
582.4,0.0107
581.6,0.0106
580.8,0.0109
580.0,0.0110