File: Figure1/UV-vis/Sample335.Sample.csv
Created as New Dataset,
nm,A
800.0,-0.0006
799.2,0.0000
798.4,-0.0008
797.6,-0.0012
796.8,-0.0008
796.0,-0.0009
795.2,0.0001
794.4,-0.0004
793.6,-0.0004
792.8,-0.0011
792.0,-0.0004
791.2,-0.0010
790.4,-0.0015
789.6,-0.0014
788.8,-0.0009
788.0,-0.0006
787.2,-0.0007
786.4,-0.0002
785.6,-0.0007
784.8,-0.0008
784.0,-0.0006
783.2,-0.0004
782.4,-0.0006
781.6,-0.0018
780.8,-0.0014
780.0,-0.0011
779.2,-0.0008
778.4,-0.0013
777.6,-0.0005
776.8,-0.0010
776.0,-0.0021
775.2,-0.0002
774.4,-0.0014
773.6,-0.0013
772.8,-0.0005
772.0,-0.0012
771.2,-0.0017
770.4,-0.0019
769.6,-0.0005
768.8,-0.0004
768.0,-0.0005
767.2,0.0003
766.4,0.0001
765.6,-0.0003
764.8,0.0000
764.0,0.0002
763.2,0.0006
762.4,0.0005
761.6,-0.0002
760.8,0.0009
760.0,0.0006
759.2,0.0001
758.4,0.0012
757.6,-0.0000
756.8,0.0000
756.0,-0.0002
755.2,0.0006
754.4,-0.0000
753.6,-0.0000
752.8,0.0008
752.0,0.0006
751.2,0.0005
750.4,0.0018
749.6,0.0009
748.8,0.0001
748.0,0.0002
747.2,0.0008
746.4,-0.0000
745.6,0.0017
744.8,0.0005
744.0,0.0012
743.2,0.0015
742.4,0.0006
741.6,0.0008
740.8,0.0007
740.0,0.0004
739.2,0.0004
738.4,0.0007
737.6,0.0008
736.8,0.0016
736.0,0.0008
735.2,0.0011
734.4,0.0013
733.6,0.0006
732.8,0.0000
732.0,0.0009
731.2,0.0013
730.4,0.0010
729.6,0.0012
728.8,0.0011
728.0,0.0010
727.2,0.0008
726.4,0.0008
725.6,0.0008
724.8,0.0005
724.0,0.0004
723.2,0.0010
722.4,0.0009
721.6,0.0010
720.8,0.0012
720.0,0.0012
719.2,0.0007
718.4,0.0012
717.6,0.0016
716.8,0.0019
716.0,0.0016
715.2,0.0017
714.4,0.0016
713.6,0.0019
712.8,0.0016
712.0,0.0021
711.2,0.0023
710.4,0.0027
709.6,0.0031
708.8,0.0019
708.0,0.0026
707.2,0.0027
706.4,0.0025
705.6,0.0028
704.8,0.0032
704.0,0.0033
703.2,0.0029
702.4,0.0025
701.6,0.0037
700.8,0.0031
700.0,0.0033
699.2,0.0029
698.4,0.0034
697.6,0.0031
696.8,0.0035
696.0,0.0038
695.2,0.0031
694.4,0.0033
693.6,0.0033
692.8,0.0036
692.0,0.0040
691.2,0.0037
690.4,0.0039
689.6,0.0037
688.8,0.0038
688.0,0.0036
687.2,0.0033
686.4,0.0044
685.6,0.0043
684.8,0.0045
684.0,0.0042
683.2,0.0039
682.4,0.0049
681.6,0.0048
680.8,0.0045
680.0,0.0048
679.2,0.0048
678.4,0.0051
677.6,0.0053
676.8,0.0052
676.0,0.0055
675.2,0.0056
674.4,0.0055
673.6,0.0061
672.8,0.0057
672.0,0.0060
671.2,0.0061
670.4,0.0061
669.6,0.0062
668.8,0.0071
668.0,0.0068
667.2,0.0071
666.4,0.0069
665.6,0.0071
664.8,0.0067
664.0,0.0066
663.2,0.0066
662.4,0.0066
661.6,0.0067
660.8,0.0060
660.0,0.0070
659.2,0.0073
658.4,0.0068
657.6,0.0063
656.8,0.0063
656.0,0.0063
655.2,0.0064
654.4,0.0064
653.6,0.0058
652.8,0.0054
652.0,0.0057
651.2,0.0058
650.4,0.0058
649.6,0.0056
648.8,0.0053
648.0,0.0054
647.2,0.0053
646.4,0.0053
645.6,0.0048
644.8,0.0052
644.0,0.0049
643.2,0.0045
642.4,0.0050
641.6,0.0046
640.8,0.0053
640.0,0.0049
639.2,0.0047
638.4,0.0051
637.6,0.0043
636.8,0.0048
636.0,0.0043
635.2,0.0052
634.4,0.0044
633.6,0.0045
632.8,0.0046
632.0,0.0044
631.2,0.0043
630.4,0.0045
629.6,0.0041
628.8,0.0045
628.0,0.0045
627.2,0.0047
626.4,0.0047
625.6,0.0044
624.8,0.0043
624.0,0.0043
623.2,0.0041
622.4,0.0041
621.6,0.0043
620.8,0.0047
620.0,0.0045
619.2,0.0040
618.4,0.0040
617.6,0.0040
616.8,0.0036
616.0,0.0037
615.2,0.0038
614.4,0.0038
613.6,0.0032
612.8,0.0038
612.0,0.0036
611.2,0.0033
610.4,0.0033
609.6,0.0027
608.8,0.0027
608.0,0.0029
607.2,0.0024
606.4,0.0021
605.6,0.0022
604.8,0.0021
604.0,0.0018
603.2,0.0019
602.4,0.0017
601.6,0.0013
600.8,0.0012
600.0,0.0013
599.2,0.0009
598.4,0.0006
597.6,0.0008
596.8,0.0003
596.0,0.0002
595.2,-0.0003
594.4,-0.0001
593.6,-0.0007
592.8,-0.0004
592.0,-0.0006
591.2,-0.0011
590.4,-0.0017
589.6,-0.0013
588.8,-0.0017
588.0,-0.0015
587.2,-0.0019
586.4,-0.0021
585.6,-0.0025
584.8,-0.0024
584.0,-0.0029
583.2,-0.0028
582.4,-0.0030
581.6,-0.0034
580.8,-0.0035
580.0,-0.0037