File: Figure1/UV-vis/Sample333.Sample.csv
Created as New Dataset,
nm,A
800.0,-0.0009
799.2,-0.0023
798.4,-0.0018
797.6,-0.0021
796.8,-0.0018
796.0,-0.0018
795.2,-0.0017
794.4,-0.0016
793.6,-0.0022
792.8,-0.0025
792.0,-0.0020
791.2,-0.0020
790.4,-0.0021
789.6,-0.0023
788.8,-0.0021
788.0,-0.0015
787.2,-0.0015
786.4,-0.0018
785.6,-0.0029
784.8,-0.0021
784.0,-0.0025
783.2,-0.0019
782.4,-0.0015
781.6,-0.0022
780.8,-0.0030
780.0,-0.0021
779.2,-0.0020
778.4,-0.0016
777.6,-0.0015
776.8,-0.0019
776.0,-0.0025
775.2,-0.0018
774.4,-0.0017
773.6,-0.0018
772.8,-0.0013
772.0,-0.0014
771.2,-0.0022
770.4,-0.0025
769.6,-0.0023
768.8,-0.0011
768.0,-0.0011
767.2,-0.0014
766.4,-0.0014
765.6,-0.0019
764.8,-0.0014
764.0,-0.0011
763.2,-0.0009
762.4,-0.0009
761.6,-0.0008
760.8,-0.0004
760.0,-0.0007
759.2,-0.0004
758.4,-0.0008
757.6,-0.0010
756.8,-0.0007
756.0,-0.0007
755.2,-0.0003
754.4,-0.0002
753.6,-0.0004
752.8,0.0001
752.0,-0.0007
751.2,-0.0007
750.4,0.0004
749.6,-0.0000
748.8,-0.0006
748.0,-0.0006
747.2,0.0000
746.4,-0.0008
745.6,-0.0003
744.8,-0.0006
744.0,0.0000
743.2,0.0005
742.4,-0.0005
741.6,-0.0001
740.8,0.0008
740.0,-0.0009
739.2,-0.0007
738.4,-0.0002
737.6,0.0002
736.8,0.0001
736.0,0.0002
735.2,-0.0001
734.4,0.0004
733.6,-0.0004
732.8,-0.0004
732.0,-0.0008
731.2,-0.0003
730.4,0.0004
729.6,0.0002
728.8,-0.0001
728.0,-0.0009
727.2,0.0000
726.4,-0.0003
725.6,-0.0000
724.8,-0.0003
724.0,-0.0006
723.2,0.0001
722.4,-0.0002
721.6,-0.0003
720.8,0.0003
720.0,-0.0002
719.2,-0.0001
718.4,0.0000
717.6,-0.0001
716.8,0.0004
716.0,0.0002
715.2,0.0005
714.4,0.0004
713.6,0.0006
712.8,0.0005
712.0,0.0011
711.2,0.0016
710.4,0.0011
709.6,0.0018
708.8,0.0009
708.0,0.0012
707.2,0.0020
706.4,0.0017
705.6,0.0021
704.8,0.0025
704.0,0.0015
703.2,0.0018
702.4,0.0018
701.6,0.0024
700.8,0.0017
700.0,0.0024
699.2,0.0019
698.4,0.0020
697.6,0.0022
696.8,0.0027
696.0,0.0022
695.2,0.0021
694.4,0.0023
693.6,0.0019
692.8,0.0022
692.0,0.0023
691.2,0.0023
690.4,0.0024
689.6,0.0022
688.8,0.0032
688.0,0.0021
687.2,0.0029
686.4,0.0031
685.6,0.0035
684.8,0.0030
684.0,0.0036
683.2,0.0037
682.4,0.0033
681.6,0.0037
680.8,0.0027
680.0,0.0036
679.2,0.0035
678.4,0.0042
677.6,0.0042
676.8,0.0040
676.0,0.0042
675.2,0.0041
674.4,0.0042
673.6,0.0043
672.8,0.0050
672.0,0.0047
671.2,0.0051
670.4,0.0045
669.6,0.0049
668.8,0.0058
668.0,0.0058
667.2,0.0057
666.4,0.0056
665.6,0.0059
664.8,0.0057
664.0,0.0059
663.2,0.0057
662.4,0.0055
661.6,0.0056
660.8,0.0054
660.0,0.0055
659.2,0.0059
658.4,0.0058
657.6,0.0053
656.8,0.0055
656.0,0.0052
655.2,0.0048
654.4,0.0053
653.6,0.0048
652.8,0.0043
652.0,0.0048
651.2,0.0047
650.4,0.0048
649.6,0.0044
648.8,0.0039
648.0,0.0046
647.2,0.0041
646.4,0.0040
645.6,0.0037
644.8,0.0043
644.0,0.0038
643.2,0.0042
642.4,0.0039
641.6,0.0038
640.8,0.0036
640.0,0.0035
639.2,0.0037
638.4,0.0037
637.6,0.0032
636.8,0.0033
636.0,0.0035
635.2,0.0034
634.4,0.0035
633.6,0.0037
632.8,0.0038
632.0,0.0032
631.2,0.0032
630.4,0.0035
629.6,0.0033
628.8,0.0032
628.0,0.0033
627.2,0.0038
626.4,0.0033
625.6,0.0029
624.8,0.0033
624.0,0.0032
623.2,0.0031
622.4,0.0030
621.6,0.0033
620.8,0.0032
620.0,0.0032
619.2,0.0031
618.4,0.0027
617.6,0.0027
616.8,0.0023
616.0,0.0024
615.2,0.0025
614.4,0.0030
613.6,0.0024
612.8,0.0025
612.0,0.0021
611.2,0.0018
610.4,0.0021
609.6,0.0015
608.8,0.0017
608.0,0.0015
607.2,0.0009
606.4,0.0013
605.6,0.0009
604.8,0.0012
604.0,0.0008
603.2,0.0004
602.4,0.0006
601.6,0.0002
600.8,0.0000
600.0,0.0000
599.2,-0.0002
598.4,-0.0003
597.6,-0.0003
596.8,-0.0011
596.0,-0.0010
595.2,-0.0014
594.4,-0.0019
593.6,-0.0019
592.8,-0.0017
592.0,-0.0022
591.2,-0.0023
590.4,-0.0025
589.6,-0.0021
588.8,-0.0024
588.0,-0.0030
587.2,-0.0032
586.4,-0.0032
585.6,-0.0036
584.8,-0.0036
584.0,-0.0039
583.2,-0.0040
582.4,-0.0045
581.6,-0.0049
580.8,-0.0045
580.0,-0.0047