File: Figure1/UV-vis/Sample340.Sample.csv
Created as New Dataset,
nm,A
800.0,0.0040
799.2,0.0027
798.4,0.0034
797.6,0.0029
796.8,0.0023
796.0,0.0032
795.2,0.0035
794.4,0.0031
793.6,0.0037
792.8,0.0022
792.0,0.0036
791.2,0.0035
790.4,0.0036
789.6,0.0026
788.8,0.0031
788.0,0.0034
787.2,0.0035
786.4,0.0034
785.6,0.0027
784.8,0.0032
784.0,0.0032
783.2,0.0039
782.4,0.0032
781.6,0.0027
780.8,0.0035
780.0,0.0036
779.2,0.0039
778.4,0.0038
777.6,0.0032
776.8,0.0042
776.0,0.0030
775.2,0.0029
774.4,0.0028
773.6,0.0038
772.8,0.0035
772.0,0.0038
771.2,0.0034
770.4,0.0026
769.6,0.0035
768.8,0.0045
768.0,0.0038
767.2,0.0041
766.4,0.0040
765.6,0.0038
764.8,0.0038
764.0,0.0039
763.2,0.0040
762.4,0.0044
761.6,0.0039
760.8,0.0044
760.0,0.0043
759.2,0.0045
758.4,0.0037
757.6,0.0034
756.8,0.0043
756.0,0.0036
755.2,0.0041
754.4,0.0042
753.6,0.0043
752.8,0.0050
752.0,0.0033
751.2,0.0038
750.4,0.0049
749.6,0.0046
748.8,0.0036
748.0,0.0040
747.2,0.0049
746.4,0.0041
745.6,0.0045
744.8,0.0041
744.0,0.0041
743.2,0.0050
742.4,0.0045
741.6,0.0043
740.8,0.0043
740.0,0.0042
739.2,0.0042
738.4,0.0043
737.6,0.0048
736.8,0.0049
736.0,0.0047
735.2,0.0052
734.4,0.0055
733.6,0.0046
732.8,0.0040
732.0,0.0044
731.2,0.0052
730.4,0.0059
729.6,0.0050
728.8,0.0055
728.0,0.0050
727.2,0.0045
726.4,0.0050
725.6,0.0044
724.8,0.0048
724.0,0.0048
723.2,0.0050
722.4,0.0053
721.6,0.0046
720.8,0.0054
720.0,0.0047
719.2,0.0050
718.4,0.0058
717.6,0.0053
716.8,0.0056
716.0,0.0056
715.2,0.0049
714.4,0.0055
713.6,0.0056
712.8,0.0059
712.0,0.0061
711.2,0.0059
710.4,0.0054
709.6,0.0059
708.8,0.0055
708.0,0.0058
707.2,0.0057
706.4,0.0055
705.6,0.0060
704.8,0.0067
704.0,0.0062
703.2,0.0054
702.4,0.0062
701.6,0.0064
700.8,0.0063
700.0,0.0062
699.2,0.0057
698.4,0.0058
697.6,0.0064
696.8,0.0065
696.0,0.0066
695.2,0.0061
694.4,0.0064
693.6,0.0063
692.8,0.0062
692.0,0.0065
691.2,0.0065
690.4,0.0067
689.6,0.0064
688.8,0.0072
688.0,0.0063
687.2,0.0066
686.4,0.0070
685.6,0.0067
684.8,0.0071
684.0,0.0066
683.2,0.0068
682.4,0.0070
681.6,0.0074
680.8,0.0069
680.0,0.0071
679.2,0.0074
678.4,0.0080
677.6,0.0079
676.8,0.0076
676.0,0.0084
675.2,0.0078
674.4,0.0078
673.6,0.0078
672.8,0.0079
672.0,0.0079
671.2,0.0086
670.4,0.0081
669.6,0.0080
668.8,0.0084
668.0,0.0082
667.2,0.0089
666.4,0.0086
665.6,0.0088
664.8,0.0081
664.0,0.0085
663.2,0.0085
662.4,0.0079
661.6,0.0085
660.8,0.0075
660.0,0.0081
659.2,0.0085
658.4,0.0082
657.6,0.0081
656.8,0.0081
656.0,0.0075
655.2,0.0078
654.4,0.0078
653.6,0.0074
652.8,0.0069
652.0,0.0075
651.2,0.0074
650.4,0.0076
649.6,0.0072
648.8,0.0069
648.0,0.0073
647.2,0.0072
646.4,0.0074
645.6,0.0069
644.8,0.0076
644.0,0.0067
643.2,0.0070
642.4,0.0070
641.6,0.0070
640.8,0.0073
640.0,0.0068
639.2,0.0070
638.4,0.0072
637.6,0.0064
636.8,0.0070
636.0,0.0070
635.2,0.0075
634.4,0.0068
633.6,0.0069
632.8,0.0072
632.0,0.0071
631.2,0.0069
630.4,0.0068
629.6,0.0067
628.8,0.0073
628.0,0.0072
627.2,0.0074
626.4,0.0070
625.6,0.0068
624.8,0.0076
624.0,0.0070
623.2,0.0072
622.4,0.0071
621.6,0.0071
620.8,0.0076
620.0,0.0073
619.2,0.0070
618.4,0.0069
617.6,0.0070
616.8,0.0067
616.0,0.0069
615.2,0.0068
614.4,0.0075
613.6,0.0066
612.8,0.0069
612.0,0.0066
611.2,0.0066
610.4,0.0062
609.6,0.0061
608.8,0.0064
608.0,0.0065
607.2,0.0057
606.4,0.0059
605.6,0.0056
604.8,0.0061
604.0,0.0055
603.2,0.0054
602.4,0.0055
601.6,0.0055
600.8,0.0050
600.0,0.0053
599.2,0.0052
598.4,0.0049
597.6,0.0047
596.8,0.0042
596.0,0.0042
595.2,0.0047
594.4,0.0041
593.6,0.0040
592.8,0.0036
592.0,0.0039
591.2,0.0036
590.4,0.0036
589.6,0.0039
588.8,0.0034
588.0,0.0033
587.2,0.0033
586.4,0.0028
585.6,0.0030
584.8,0.0031
584.0,0.0029
583.2,0.0023
582.4,0.0021
581.6,0.0021
580.8,0.0025
580.0,0.0022