File: Figure1/UV-vis/Sample344.Sample.csv
Created as New Dataset,
nm,A
800.0,-0.0138
799.2,-0.0146
798.4,-0.0151
797.6,-0.0155
796.8,-0.0159
796.0,-0.0150
795.2,-0.0158
794.4,-0.0169
793.6,-0.0172
792.8,-0.0177
792.0,-0.0173
791.2,-0.0180
790.4,-0.0195
789.6,-0.0192
788.8,-0.0201
788.0,-0.0195
787.2,-0.0197
786.4,-0.0201
785.6,-0.0215
784.8,-0.0211
784.0,-0.0201
783.2,-0.0206
782.4,-0.0218
781.6,-0.0217
780.8,-0.0214
780.0,-0.0204
779.2,-0.0211
778.4,-0.0206
777.6,-0.0206
776.8,-0.0205
776.0,-0.0211
775.2,-0.0202
774.4,-0.0215
773.6,-0.0207
772.8,-0.0207
772.0,-0.0201
771.2,-0.0208
770.4,-0.0199
769.6,-0.0203
768.8,-0.0181
768.0,-0.0175
767.2,-0.0173
766.4,-0.0163
765.6,-0.0155
764.8,-0.0148
764.0,-0.0138
763.2,-0.0129
762.4,-0.0119
761.6,-0.0121
760.8,-0.0125
760.0,-0.0125
759.2,-0.0140
758.4,-0.0151
757.6,-0.0165
756.8,-0.0181
756.0,-0.0193
755.2,-0.0218
754.4,-0.0227
753.6,-0.0236
752.8,-0.0251
752.0,-0.0264
751.2,-0.0273
750.4,-0.0273
749.6,-0.0278
748.8,-0.0286
748.0,-0.0288
747.2,-0.0279
746.4,-0.0284
745.6,-0.0277
744.8,-0.0276
744.0,-0.0281
743.2,-0.0276
742.4,-0.0285
741.6,-0.0287
740.8,-0.0286
740.0,-0.0289
739.2,-0.0288
738.4,-0.0274
737.6,-0.0265
736.8,-0.0255
736.0,-0.0241
735.2,-0.0228
734.4,-0.0208
733.6,-0.0205
732.8,-0.0191
732.0,-0.0184
731.2,-0.0181
730.4,-0.0172
729.6,-0.0179
728.8,-0.0188
728.0,-0.0201
727.2,-0.0212
726.4,-0.0216
725.6,-0.0233
724.8,-0.0245
724.0,-0.0248
723.2,-0.0250
722.4,-0.0251
721.6,-0.0256
720.8,-0.0262
720.0,-0.0263
719.2,-0.0263
718.4,-0.0265
717.6,-0.0263
716.8,-0.0250
716.0,-0.0245
715.2,-0.0232
714.4,-0.0216
713.6,-0.0213
712.8,-0.0205
712.0,-0.0202
711.2,-0.0204
710.4,-0.0219
709.6,-0.0224
708.8,-0.0238
708.0,-0.0245
707.2,-0.0262
706.4,-0.0268
705.6,-0.0269
704.8,-0.0269
704.0,-0.0274
703.2,-0.0283
702.4,-0.0279
701.6,-0.0272
700.8,-0.0276
700.0,-0.0255
699.2,-0.0247
698.4,-0.0230
697.6,-0.0218
696.8,-0.0202
696.0,-0.0198
695.2,-0.0194
694.4,-0.0196
693.6,-0.0190
692.8,-0.0196
692.0,-0.0195
691.2,-0.0207
690.4,-0.0210
689.6,-0.0224
688.8,-0.0229
688.0,-0.0241
687.2,-0.0244
686.4,-0.0251
685.6,-0.0255
684.8,-0.0259
684.0,-0.0261
683.2,-0.0262
682.4,-0.0267
681.6,-0.0266
680.8,-0.0270
680.0,-0.0267
679.2,-0.0272
678.4,-0.0270
677.6,-0.0273
676.8,-0.0275
676.0,-0.0271
675.2,-0.0277
674.4,-0.0271
673.6,-0.0277
672.8,-0.0273
672.0,-0.0270
671.2,-0.0271
670.4,-0.0273
669.6,-0.0274
668.8,-0.0262
668.0,-0.0262
667.2,-0.0262
666.4,-0.0263
665.6,-0.0257
664.8,-0.0258
664.0,-0.0258
663.2,-0.0255
662.4,-0.0258
661.6,-0.0251
660.8,-0.0257
660.0,-0.0249
659.2,-0.0248
658.4,-0.0250
657.6,-0.0253
656.8,-0.0254
656.0,-0.0253
655.2,-0.0254
654.4,-0.0254
653.6,-0.0259
652.8,-0.0261
652.0,-0.0256
651.2,-0.0258
650.4,-0.0260
649.6,-0.0267
648.8,-0.0271
648.0,-0.0266
647.2,-0.0273
646.4,-0.0274
645.6,-0.0281
644.8,-0.0278
644.0,-0.0286
643.2,-0.0288
642.4,-0.0289
641.6,-0.0295
640.8,-0.0293
640.0,-0.0301
639.2,-0.0309
638.4,-0.0311
637.6,-0.0318
636.8,-0.0313
636.0,-0.0324
635.2,-0.0325
634.4,-0.0335
633.6,-0.0334
632.8,-0.0338
632.0,-0.0339
631.2,-0.0344
630.4,-0.0348
629.6,-0.0353
628.8,-0.0354
628.0,-0.0354
627.2,-0.0358
626.4,-0.0367
625.6,-0.0370
624.8,-0.0369
624.0,-0.0374
623.2,-0.0380
622.4,-0.0384
621.6,-0.0384
620.8,-0.0383
620.0,-0.0389
619.2,-0.0391
618.4,-0.0397
617.6,-0.0396
616.8,-0.0401
616.0,-0.0399
615.2,-0.0400
614.4,-0.0396
613.6,-0.0399
612.8,-0.0407
612.0,-0.0404
611.2,-0.0409
610.4,-0.0413
609.6,-0.0409
608.8,-0.0409
608.0,-0.0407
607.2,-0.0412
606.4,-0.0410
605.6,-0.0411
604.8,-0.0408
604.0,-0.0409
603.2,-0.0412
602.4,-0.0407
601.6,-0.0407
600.8,-0.0409
600.0,-0.0408
599.2,-0.0407
598.4,-0.0402
597.6,-0.0406
596.8,-0.0408
596.0,-0.0406
595.2,-0.0407
594.4,-0.0408
593.6,-0.0407
592.8,-0.0409
592.0,-0.0408
591.2,-0.0413
590.4,-0.0412
589.6,-0.0414
588.8,-0.0412
588.0,-0.0413
587.2,-0.0419
586.4,-0.0419
585.6,-0.0423
584.8,-0.0423
584.0,-0.0428
583.2,-0.0427
582.4,-0.0431
581.6,-0.0433
580.8,-0.0434
580.0,-0.0435