File: Figure1/UV-vis/Sample350.Sample.csv
Created as New Dataset,
nm,A
800.0,0.0081
799.2,0.0081
798.4,0.0084
797.6,0.0070
796.8,0.0083
796.0,0.0089
795.2,0.0086
794.4,0.0078
793.6,0.0086
792.8,0.0078
792.0,0.0082
791.2,0.0086
790.4,0.0075
789.6,0.0077
788.8,0.0079
788.0,0.0079
787.2,0.0085
786.4,0.0082
785.6,0.0078
784.8,0.0091
784.0,0.0089
783.2,0.0081
782.4,0.0076
781.6,0.0080
780.8,0.0078
780.0,0.0088
779.2,0.0087
778.4,0.0081
777.6,0.0084
776.8,0.0086
776.0,0.0077
775.2,0.0084
774.4,0.0083
773.6,0.0075
772.8,0.0085
772.0,0.0085
771.2,0.0081
770.4,0.0081
769.6,0.0079
768.8,0.0090
768.0,0.0087
767.2,0.0089
766.4,0.0095
765.6,0.0089
764.8,0.0085
764.0,0.0091
763.2,0.0096
762.4,0.0097
761.6,0.0094
760.8,0.0090
760.0,0.0091
759.2,0.0086
758.4,0.0094
757.6,0.0093
756.8,0.0086
756.0,0.0088
755.2,0.0093
754.4,0.0092
753.6,0.0093
752.8,0.0096
752.0,0.0089
751.2,0.0088
750.4,0.0095
749.6,0.0098
748.8,0.0092
748.0,0.0087
747.2,0.0091
746.4,0.0085
745.6,0.0096
744.8,0.0096
744.0,0.0094
743.2,0.0100
742.4,0.0097
741.6,0.0096
740.8,0.0093
740.0,0.0088
739.2,0.0095
738.4,0.0097
737.6,0.0095
736.8,0.0097
736.0,0.0099
735.2,0.0106
734.4,0.0099
733.6,0.0099
732.8,0.0094
732.0,0.0100
731.2,0.0095
730.4,0.0103
729.6,0.0104
728.8,0.0102
728.0,0.0096
727.2,0.0102
726.4,0.0098
725.6,0.0106
724.8,0.0095
724.0,0.0098
723.2,0.0107
722.4,0.0108
721.6,0.0105
720.8,0.0099
720.0,0.0103
719.2,0.0100
718.4,0.0106
717.6,0.0106
716.8,0.0110
716.0,0.0106
715.2,0.0105
714.4,0.0105
713.6,0.0107
712.8,0.0103
712.0,0.0119
711.2,0.0112
710.4,0.0110
709.6,0.0116
708.8,0.0108
708.0,0.0115
707.2,0.0110
706.4,0.0109
705.6,0.0110
704.8,0.0122
704.0,0.0117
703.2,0.0116
702.4,0.0113
701.6,0.0123
700.8,0.0116
700.0,0.0117
699.2,0.0117
698.4,0.0121
697.6,0.0121
696.8,0.0121
696.0,0.0124
695.2,0.0124
694.4,0.0123
693.6,0.0125
692.8,0.0125
692.0,0.0129
691.2,0.0131
690.4,0.0130
689.6,0.0128
688.8,0.0128
688.0,0.0127
687.2,0.0131
686.4,0.0133
685.6,0.0132
684.8,0.0137
684.0,0.0134
683.2,0.0139
682.4,0.0141
681.6,0.0138
680.8,0.0136
680.0,0.0140
679.2,0.0142
678.4,0.0145
677.6,0.0144
676.8,0.0148
676.0,0.0152
675.2,0.0154
674.4,0.0152
673.6,0.0150
672.8,0.0153
672.0,0.0156
671.2,0.0159
670.4,0.0160
669.6,0.0156
668.8,0.0161
668.0,0.0160
667.2,0.0165
666.4,0.0162
665.6,0.0161
664.8,0.0158
664.0,0.0158
663.2,0.0156
662.4,0.0158
661.6,0.0160
660.8,0.0150
660.0,0.0157
659.2,0.0159
658.4,0.0152
657.6,0.0149
656.8,0.0154
656.0,0.0148
655.2,0.0147
654.4,0.0154
653.6,0.0144
652.8,0.0144
652.0,0.0150
651.2,0.0147
650.4,0.0150
649.6,0.0144
648.8,0.0145
648.0,0.0147
647.2,0.0145
646.4,0.0145
645.6,0.0141
644.8,0.0147
644.0,0.0146
643.2,0.0145
642.4,0.0151
641.6,0.0146
640.8,0.0150
640.0,0.0150
639.2,0.0151
638.4,0.0150
637.6,0.0142
636.8,0.0155
636.0,0.0150
635.2,0.0157
634.4,0.0148
633.6,0.0157
632.8,0.0160
632.0,0.0156
631.2,0.0155
630.4,0.0157
629.6,0.0157
628.8,0.0160
628.0,0.0159
627.2,0.0166
626.4,0.0165
625.6,0.0163
624.8,0.0162
624.0,0.0164
623.2,0.0165
622.4,0.0162
621.6,0.0163
620.8,0.0172
620.0,0.0168
619.2,0.0168
618.4,0.0160
617.6,0.0170
616.8,0.0164
616.0,0.0163
615.2,0.0162
614.4,0.0166
613.6,0.0160
612.8,0.0163
612.0,0.0162
611.2,0.0161
610.4,0.0158
609.6,0.0159
608.8,0.0159
608.0,0.0159
607.2,0.0154
606.4,0.0153
605.6,0.0151
604.8,0.0156
604.0,0.0151
603.2,0.0143
602.4,0.0149
601.6,0.0143
600.8,0.0140
600.0,0.0142
599.2,0.0141
598.4,0.0142
597.6,0.0137
596.8,0.0137
596.0,0.0138
595.2,0.0138
594.4,0.0135
593.6,0.0129
592.8,0.0131
592.0,0.0135
591.2,0.0131
590.4,0.0126
589.6,0.0133
588.8,0.0129
588.0,0.0128
587.2,0.0127
586.4,0.0125
585.6,0.0123
584.8,0.0126
584.0,0.0121
583.2,0.0122
582.4,0.0120
581.6,0.0117
580.8,0.0120
580.0,0.0115