File: Figure1/UV-vis/Sample349.Sample.csv
Created as New Dataset,
nm,A
800.0,0.0080
799.2,0.0078
798.4,0.0085
797.6,0.0079
796.8,0.0077
796.0,0.0088
795.2,0.0082
794.4,0.0077
793.6,0.0083
792.8,0.0076
792.0,0.0083
791.2,0.0082
790.4,0.0078
789.6,0.0076
788.8,0.0077
788.0,0.0082
787.2,0.0081
786.4,0.0081
785.6,0.0071
784.8,0.0078
784.0,0.0080
783.2,0.0078
782.4,0.0076
781.6,0.0076
780.8,0.0078
780.0,0.0085
779.2,0.0089
778.4,0.0082
777.6,0.0079
776.8,0.0082
776.0,0.0083
775.2,0.0091
774.4,0.0080
773.6,0.0076
772.8,0.0083
772.0,0.0086
771.2,0.0077
770.4,0.0076
769.6,0.0073
768.8,0.0086
768.0,0.0086
767.2,0.0084
766.4,0.0080
765.6,0.0079
764.8,0.0087
764.0,0.0084
763.2,0.0088
762.4,0.0087
761.6,0.0087
760.8,0.0086
760.0,0.0084
759.2,0.0089
758.4,0.0087
757.6,0.0080
756.8,0.0088
756.0,0.0081
755.2,0.0083
754.4,0.0094
753.6,0.0086
752.8,0.0093
752.0,0.0087
751.2,0.0092
750.4,0.0089
749.6,0.0087
748.8,0.0085
748.0,0.0080
747.2,0.0087
746.4,0.0086
745.6,0.0096
744.8,0.0085
744.0,0.0092
743.2,0.0099
742.4,0.0092
741.6,0.0094
740.8,0.0088
740.0,0.0093
739.2,0.0090
738.4,0.0094
737.6,0.0089
736.8,0.0100
736.0,0.0096
735.2,0.0098
734.4,0.0101
733.6,0.0094
732.8,0.0089
732.0,0.0099
731.2,0.0102
730.4,0.0106
729.6,0.0097
728.8,0.0102
728.0,0.0092
727.2,0.0099
726.4,0.0095
725.6,0.0101
724.8,0.0096
724.0,0.0099
723.2,0.0103
722.4,0.0101
721.6,0.0103
720.8,0.0102
720.0,0.0100
719.2,0.0101
718.4,0.0105
717.6,0.0102
716.8,0.0103
716.0,0.0104
715.2,0.0097
714.4,0.0099
713.6,0.0103
712.8,0.0104
712.0,0.0109
711.2,0.0108
710.4,0.0109
709.6,0.0108
708.8,0.0103
708.0,0.0107
707.2,0.0107
706.4,0.0107
705.6,0.0107
704.8,0.0116
704.0,0.0110
703.2,0.0110
702.4,0.0112
701.6,0.0119
700.8,0.0113
700.0,0.0114
699.2,0.0114
698.4,0.0112
697.6,0.0115
696.8,0.0122
696.0,0.0118
695.2,0.0116
694.4,0.0118
693.6,0.0121
692.8,0.0124
692.0,0.0129
691.2,0.0126
690.4,0.0127
689.6,0.0124
688.8,0.0126
688.0,0.0127
687.2,0.0128
686.4,0.0134
685.6,0.0131
684.8,0.0134
684.0,0.0137
683.2,0.0132
682.4,0.0131
681.6,0.0138
680.8,0.0133
680.0,0.0136
679.2,0.0138
678.4,0.0138
677.6,0.0144
676.8,0.0145
676.0,0.0147
675.2,0.0146
674.4,0.0148
673.6,0.0149
672.8,0.0151
672.0,0.0147
671.2,0.0158
670.4,0.0150
669.6,0.0151
668.8,0.0155
668.0,0.0157
667.2,0.0161
666.4,0.0155
665.6,0.0156
664.8,0.0154
664.0,0.0155
663.2,0.0155
662.4,0.0150
661.6,0.0157
660.8,0.0150
660.0,0.0151
659.2,0.0152
658.4,0.0156
657.6,0.0148
656.8,0.0150
656.0,0.0148
655.2,0.0150
654.4,0.0148
653.6,0.0143
652.8,0.0137
652.0,0.0142
651.2,0.0143
650.4,0.0145
649.6,0.0139
648.8,0.0138
648.0,0.0145
647.2,0.0142
646.4,0.0143
645.6,0.0142
644.8,0.0147
644.0,0.0143
643.2,0.0143
642.4,0.0143
641.6,0.0143
640.8,0.0147
640.0,0.0146
639.2,0.0146
638.4,0.0147
637.6,0.0145
636.8,0.0151
636.0,0.0146
635.2,0.0147
634.4,0.0144
633.6,0.0149
632.8,0.0153
632.0,0.0152
631.2,0.0153
630.4,0.0153
629.6,0.0153
628.8,0.0157
628.0,0.0162
627.2,0.0162
626.4,0.0158
625.6,0.0158
624.8,0.0161
624.0,0.0162
623.2,0.0162
622.4,0.0161
621.6,0.0160
620.8,0.0166
620.0,0.0165
619.2,0.0164
618.4,0.0161
617.6,0.0163
616.8,0.0162
616.0,0.0162
615.2,0.0160
614.4,0.0165
613.6,0.0161
612.8,0.0158
612.0,0.0158
611.2,0.0155
610.4,0.0148
609.6,0.0154
608.8,0.0153
608.0,0.0154
607.2,0.0148
606.4,0.0147
605.6,0.0148
604.8,0.0147
604.0,0.0144
603.2,0.0143
602.4,0.0140
601.6,0.0140
600.8,0.0139
600.0,0.0139
599.2,0.0137
598.4,0.0138
597.6,0.0134
596.8,0.0130
596.0,0.0133
595.2,0.0132
594.4,0.0131
593.6,0.0126
592.8,0.0127
592.0,0.0129
591.2,0.0124
590.4,0.0130
589.6,0.0125
588.8,0.0123
588.0,0.0124
587.2,0.0125
586.4,0.0123
585.6,0.0121
584.8,0.0122
584.0,0.0118
583.2,0.0116
582.4,0.0115
581.6,0.0114
580.8,0.0117
580.0,0.0114