File: Figure1/UV-vis/Sample348.Sample.csv
Created as New Dataset,
nm,A
800.0,0.0083
799.2,0.0080
798.4,0.0078
797.6,0.0067
796.8,0.0070
796.0,0.0077
795.2,0.0078
794.4,0.0072
793.6,0.0075
792.8,0.0073
792.0,0.0073
791.2,0.0080
790.4,0.0070
789.6,0.0070
788.8,0.0072
788.0,0.0072
787.2,0.0080
786.4,0.0069
785.6,0.0074
784.8,0.0081
784.0,0.0069
783.2,0.0087
782.4,0.0076
781.6,0.0071
780.8,0.0078
780.0,0.0082
779.2,0.0077
778.4,0.0073
777.6,0.0082
776.8,0.0077
776.0,0.0069
775.2,0.0070
774.4,0.0072
773.6,0.0073
772.8,0.0085
772.0,0.0077
771.2,0.0074
770.4,0.0069
769.6,0.0071
768.8,0.0082
768.0,0.0080
767.2,0.0080
766.4,0.0084
765.6,0.0079
764.8,0.0076
764.0,0.0076
763.2,0.0082
762.4,0.0091
761.6,0.0083
760.8,0.0077
760.0,0.0090
759.2,0.0085
758.4,0.0081
757.6,0.0084
756.8,0.0093
756.0,0.0080
755.2,0.0084
754.4,0.0087
753.6,0.0087
752.8,0.0086
752.0,0.0080
751.2,0.0077
750.4,0.0092
749.6,0.0086
748.8,0.0083
748.0,0.0082
747.2,0.0084
746.4,0.0080
745.6,0.0093
744.8,0.0087
744.0,0.0089
743.2,0.0091
742.4,0.0089
741.6,0.0086
740.8,0.0090
740.0,0.0090
739.2,0.0083
738.4,0.0083
737.6,0.0090
736.8,0.0091
736.0,0.0090
735.2,0.0094
734.4,0.0092
733.6,0.0090
732.8,0.0084
732.0,0.0090
731.2,0.0094
730.4,0.0100
729.6,0.0100
728.8,0.0097
728.0,0.0091
727.2,0.0094
726.4,0.0091
725.6,0.0093
724.8,0.0096
724.0,0.0092
723.2,0.0097
722.4,0.0099
721.6,0.0092
720.8,0.0096
720.0,0.0095
719.2,0.0099
718.4,0.0105
717.6,0.0098
716.8,0.0099
716.0,0.0098
715.2,0.0099
714.4,0.0102
713.6,0.0104
712.8,0.0096
712.0,0.0105
711.2,0.0104
710.4,0.0103
709.6,0.0109
708.8,0.0095
708.0,0.0106
707.2,0.0104
706.4,0.0106
705.6,0.0107
704.8,0.0113
704.0,0.0110
703.2,0.0107
702.4,0.0111
701.6,0.0115
700.8,0.0112
700.0,0.0113
699.2,0.0110
698.4,0.0115
697.6,0.0116
696.8,0.0117
696.0,0.0119
695.2,0.0114
694.4,0.0116
693.6,0.0115
692.8,0.0123
692.0,0.0123
691.2,0.0122
690.4,0.0124
689.6,0.0120
688.8,0.0128
688.0,0.0121
687.2,0.0125
686.4,0.0132
685.6,0.0129
684.8,0.0132
684.0,0.0131
683.2,0.0137
682.4,0.0130
681.6,0.0134
680.8,0.0133
680.0,0.0135
679.2,0.0134
678.4,0.0136
677.6,0.0140
676.8,0.0142
676.0,0.0140
675.2,0.0144
674.4,0.0144
673.6,0.0143
672.8,0.0148
672.0,0.0149
671.2,0.0152
670.4,0.0148
669.6,0.0149
668.8,0.0154
668.0,0.0155
667.2,0.0158
666.4,0.0153
665.6,0.0154
664.8,0.0153
664.0,0.0152
663.2,0.0151
662.4,0.0150
661.6,0.0153
660.8,0.0146
660.0,0.0150
659.2,0.0154
658.4,0.0148
657.6,0.0145
656.8,0.0146
656.0,0.0145
655.2,0.0141
654.4,0.0145
653.6,0.0139
652.8,0.0137
652.0,0.0140
651.2,0.0143
650.4,0.0143
649.6,0.0140
648.8,0.0138
648.0,0.0140
647.2,0.0139
646.4,0.0142
645.6,0.0139
644.8,0.0142
644.0,0.0146
643.2,0.0139
642.4,0.0142
641.6,0.0143
640.8,0.0145
640.0,0.0141
639.2,0.0142
638.4,0.0145
637.6,0.0137
636.8,0.0145
636.0,0.0140
635.2,0.0148
634.4,0.0149
633.6,0.0153
632.8,0.0149
632.0,0.0150
631.2,0.0147
630.4,0.0150
629.6,0.0151
628.8,0.0153
628.0,0.0157
627.2,0.0158
626.4,0.0154
625.6,0.0151
624.8,0.0157
624.0,0.0156
623.2,0.0155
622.4,0.0157
621.6,0.0158
620.8,0.0162
620.0,0.0162
619.2,0.0160
618.4,0.0157
617.6,0.0158
616.8,0.0156
616.0,0.0159
615.2,0.0154
614.4,0.0161
613.6,0.0157
612.8,0.0155
612.0,0.0159
611.2,0.0151
610.4,0.0151
609.6,0.0151
608.8,0.0153
608.0,0.0149
607.2,0.0146
606.4,0.0148
605.6,0.0146
604.8,0.0146
604.0,0.0144
603.2,0.0140
602.4,0.0139
601.6,0.0137
600.8,0.0136
600.0,0.0138
599.2,0.0134
598.4,0.0135
597.6,0.0133
596.8,0.0128
596.0,0.0132
595.2,0.0129
594.4,0.0128
593.6,0.0122
592.8,0.0126
592.0,0.0125
591.2,0.0125
590.4,0.0122
589.6,0.0121
588.8,0.0122
588.0,0.0121
587.2,0.0118
586.4,0.0120
585.6,0.0113
584.8,0.0118
584.0,0.0114
583.2,0.0114
582.4,0.0110
581.6,0.0109
580.8,0.0111
580.0,0.0109