File: Figure1/UV-vis/Sample339.Sample.csv
Created as New Dataset,
nm,A
800.0,0.0011
799.2,0.0026
798.4,0.0030
797.6,0.0026
796.8,0.0021
796.0,0.0028
795.2,0.0035
794.4,0.0029
793.6,0.0031
792.8,0.0027
792.0,0.0033
791.2,0.0028
790.4,0.0020
789.6,0.0017
788.8,0.0029
788.0,0.0024
787.2,0.0027
786.4,0.0022
785.6,0.0021
784.8,0.0026
784.0,0.0029
783.2,0.0028
782.4,0.0038
781.6,0.0019
780.8,0.0022
780.0,0.0023
779.2,0.0034
778.4,0.0023
777.6,0.0026
776.8,0.0030
776.0,0.0026
775.2,0.0033
774.4,0.0022
773.6,0.0028
772.8,0.0030
772.0,0.0031
771.2,0.0032
770.4,0.0026
769.6,0.0026
768.8,0.0031
768.0,0.0031
767.2,0.0031
766.4,0.0030
765.6,0.0030
764.8,0.0030
764.0,0.0029
763.2,0.0035
762.4,0.0040
761.6,0.0035
760.8,0.0033
760.0,0.0036
759.2,0.0039
758.4,0.0040
757.6,0.0034
756.8,0.0036
756.0,0.0035
755.2,0.0038
754.4,0.0034
753.6,0.0039
752.8,0.0043
752.0,0.0033
751.2,0.0035
750.4,0.0042
749.6,0.0036
748.8,0.0039
748.0,0.0035
747.2,0.0045
746.4,0.0036
745.6,0.0039
744.8,0.0037
744.0,0.0039
743.2,0.0045
742.4,0.0042
741.6,0.0037
740.8,0.0042
740.0,0.0036
739.2,0.0042
738.4,0.0038
737.6,0.0044
736.8,0.0046
736.0,0.0047
735.2,0.0048
734.4,0.0047
733.6,0.0041
732.8,0.0032
732.0,0.0042
731.2,0.0045
730.4,0.0048
729.6,0.0044
728.8,0.0048
728.0,0.0046
727.2,0.0043
726.4,0.0049
725.6,0.0041
724.8,0.0043
724.0,0.0043
723.2,0.0046
722.4,0.0048
721.6,0.0047
720.8,0.0048
720.0,0.0048
719.2,0.0047
718.4,0.0047
717.6,0.0047
716.8,0.0049
716.0,0.0050
715.2,0.0046
714.4,0.0046
713.6,0.0047
712.8,0.0051
712.0,0.0050
711.2,0.0055
710.4,0.0050
709.6,0.0050
708.8,0.0042
708.0,0.0054
707.2,0.0051
706.4,0.0052
705.6,0.0056
704.8,0.0061
704.0,0.0056
703.2,0.0052
702.4,0.0052
701.6,0.0057
700.8,0.0058
700.0,0.0055
699.2,0.0052
698.4,0.0057
697.6,0.0052
696.8,0.0059
696.0,0.0060
695.2,0.0054
694.4,0.0057
693.6,0.0060
692.8,0.0059
692.0,0.0057
691.2,0.0057
690.4,0.0059
689.6,0.0055
688.8,0.0062
688.0,0.0059
687.2,0.0059
686.4,0.0065
685.6,0.0061
684.8,0.0065
684.0,0.0062
683.2,0.0064
682.4,0.0066
681.6,0.0070
680.8,0.0064
680.0,0.0067
679.2,0.0066
678.4,0.0069
677.6,0.0072
676.8,0.0071
676.0,0.0072
675.2,0.0070
674.4,0.0073
673.6,0.0071
672.8,0.0073
672.0,0.0076
671.2,0.0078
670.4,0.0075
669.6,0.0074
668.8,0.0081
668.0,0.0078
667.2,0.0077
666.4,0.0079
665.6,0.0076
664.8,0.0073
664.0,0.0080
663.2,0.0078
662.4,0.0078
661.6,0.0079
660.8,0.0076
660.0,0.0078
659.2,0.0080
658.4,0.0082
657.6,0.0073
656.8,0.0071
656.0,0.0073
655.2,0.0070
654.4,0.0072
653.6,0.0069
652.8,0.0065
652.0,0.0071
651.2,0.0071
650.4,0.0071
649.6,0.0064
648.8,0.0065
648.0,0.0066
647.2,0.0065
646.4,0.0065
645.6,0.0063
644.8,0.0071
644.0,0.0068
643.2,0.0065
642.4,0.0066
641.6,0.0061
640.8,0.0072
640.0,0.0065
639.2,0.0063
638.4,0.0066
637.6,0.0064
636.8,0.0069
636.0,0.0062
635.2,0.0068
634.4,0.0065
633.6,0.0066
632.8,0.0068
632.0,0.0064
631.2,0.0063
630.4,0.0065
629.6,0.0065
628.8,0.0068
628.0,0.0068
627.2,0.0068
626.4,0.0064
625.6,0.0064
624.8,0.0068
624.0,0.0069
623.2,0.0062
622.4,0.0065
621.6,0.0061
620.8,0.0069
620.0,0.0070
619.2,0.0065
618.4,0.0064
617.6,0.0069
616.8,0.0063
616.0,0.0066
615.2,0.0063
614.4,0.0070
613.6,0.0060
612.8,0.0061
612.0,0.0062
611.2,0.0058
610.4,0.0057
609.6,0.0057
608.8,0.0056
608.0,0.0057
607.2,0.0054
606.4,0.0057
605.6,0.0052
604.8,0.0053
604.0,0.0050
603.2,0.0049
602.4,0.0047
601.6,0.0047
600.8,0.0047
600.0,0.0045
599.2,0.0046
598.4,0.0042
597.6,0.0042
596.8,0.0041
596.0,0.0037
595.2,0.0039
594.4,0.0036
593.6,0.0031
592.8,0.0032
592.0,0.0035
591.2,0.0031
590.4,0.0032
589.6,0.0029
588.8,0.0028
588.0,0.0032
587.2,0.0028
586.4,0.0023
585.6,0.0023
584.8,0.0027
584.0,0.0021
583.2,0.0025
582.4,0.0018
581.6,0.0017
580.8,0.0018
580.0,0.0013