File: Figure1/UV-vis/Sample337.Sample.csv
Created as New Dataset,
nm,A
800.0,-0.0002
799.2,0.0004
798.4,0.0009
797.6,-0.0006
796.8,0.0007
796.0,0.0006
795.2,0.0004
794.4,0.0004
793.6,-0.0002
792.8,0.0007
792.0,0.0003
791.2,0.0002
790.4,0.0003
789.6,0.0001
788.8,-0.0002
788.0,0.0003
787.2,0.0000
786.4,0.0003
785.6,-0.0004
784.8,0.0002
784.0,0.0004
783.2,0.0002
782.4,0.0007
781.6,-0.0003
780.8,-0.0002
780.0,0.0003
779.2,0.0011
778.4,0.0001
777.6,0.0004
776.8,0.0007
776.0,-0.0002
775.2,0.0007
774.4,-0.0003
773.6,0.0002
772.8,0.0009
772.0,0.0010
771.2,-0.0000
770.4,-0.0004
769.6,0.0001
768.8,0.0015
768.0,0.0014
767.2,0.0012
766.4,0.0010
765.6,0.0002
764.8,0.0007
764.0,0.0008
763.2,0.0014
762.4,0.0011
761.6,0.0018
760.8,0.0015
760.0,0.0020
759.2,0.0019
758.4,0.0022
757.6,0.0009
756.8,0.0017
756.0,0.0009
755.2,0.0012
754.4,0.0021
753.6,0.0014
752.8,0.0022
752.0,0.0018
751.2,0.0018
750.4,0.0022
749.6,0.0017
748.8,0.0019
748.0,0.0009
747.2,0.0025
746.4,0.0019
745.6,0.0025
744.8,0.0022
744.0,0.0020
743.2,0.0024
742.4,0.0025
741.6,0.0024
740.8,0.0020
740.0,0.0016
739.2,0.0014
738.4,0.0020
737.6,0.0020
736.8,0.0018
736.0,0.0023
735.2,0.0022
734.4,0.0026
733.6,0.0017
732.8,0.0015
732.0,0.0020
731.2,0.0025
730.4,0.0021
729.6,0.0025
728.8,0.0023
728.0,0.0029
727.2,0.0022
726.4,0.0017
725.6,0.0017
724.8,0.0018
724.0,0.0019
723.2,0.0020
722.4,0.0023
721.6,0.0024
720.8,0.0022
720.0,0.0019
719.2,0.0021
718.4,0.0024
717.6,0.0023
716.8,0.0028
716.0,0.0034
715.2,0.0030
714.4,0.0027
713.6,0.0028
712.8,0.0033
712.0,0.0035
711.2,0.0038
710.4,0.0039
709.6,0.0040
708.8,0.0033
708.0,0.0043
707.2,0.0039
706.4,0.0041
705.6,0.0040
704.8,0.0043
704.0,0.0041
703.2,0.0041
702.4,0.0042
701.6,0.0050
700.8,0.0045
700.0,0.0045
699.2,0.0040
698.4,0.0045
697.6,0.0050
696.8,0.0053
696.0,0.0049
695.2,0.0045
694.4,0.0044
693.6,0.0047
692.8,0.0049
692.0,0.0053
691.2,0.0051
690.4,0.0056
689.6,0.0050
688.8,0.0056
688.0,0.0047
687.2,0.0055
686.4,0.0062
685.6,0.0057
684.8,0.0061
684.0,0.0058
683.2,0.0061
682.4,0.0061
681.6,0.0061
680.8,0.0062
680.0,0.0062
679.2,0.0062
678.4,0.0067
677.6,0.0065
676.8,0.0065
676.0,0.0072
675.2,0.0069
674.4,0.0074
673.6,0.0070
672.8,0.0076
672.0,0.0072
671.2,0.0079
670.4,0.0079
669.6,0.0077
668.8,0.0085
668.0,0.0081
667.2,0.0087
666.4,0.0078
665.6,0.0088
664.8,0.0080
664.0,0.0089
663.2,0.0087
662.4,0.0078
661.6,0.0082
660.8,0.0076
660.0,0.0083
659.2,0.0085
658.4,0.0081
657.6,0.0081
656.8,0.0080
656.0,0.0073
655.2,0.0073
654.4,0.0076
653.6,0.0075
652.8,0.0070
652.0,0.0070
651.2,0.0075
650.4,0.0078
649.6,0.0066
648.8,0.0067
648.0,0.0072
647.2,0.0068
646.4,0.0067
645.6,0.0065
644.8,0.0068
644.0,0.0063
643.2,0.0064
642.4,0.0067
641.6,0.0065
640.8,0.0066
640.0,0.0060
639.2,0.0061
638.4,0.0062
637.6,0.0058
636.8,0.0063
636.0,0.0056
635.2,0.0063
634.4,0.0059
633.6,0.0061
632.8,0.0063
632.0,0.0060
631.2,0.0059
630.4,0.0057
629.6,0.0060
628.8,0.0060
628.0,0.0059
627.2,0.0060
626.4,0.0060
625.6,0.0054
624.8,0.0060
624.0,0.0058
623.2,0.0056
622.4,0.0057
621.6,0.0059
620.8,0.0059
620.0,0.0059
619.2,0.0056
618.4,0.0050
617.6,0.0055
616.8,0.0051
616.0,0.0052
615.2,0.0051
614.4,0.0051
613.6,0.0046
612.8,0.0045
612.0,0.0051
611.2,0.0042
610.4,0.0042
609.6,0.0041
608.8,0.0043
608.0,0.0041
607.2,0.0037
606.4,0.0037
605.6,0.0035
604.8,0.0033
604.0,0.0032
603.2,0.0029
602.4,0.0030
601.6,0.0029
600.8,0.0027
600.0,0.0023
599.2,0.0023
598.4,0.0020
597.6,0.0018
596.8,0.0015
596.0,0.0012
595.2,0.0013
594.4,0.0008
593.6,0.0005
592.8,0.0004
592.0,0.0010
591.2,0.0002
590.4,0.0002
589.6,0.0000
588.8,-0.0001
588.0,-0.0002
587.2,-0.0008
586.4,-0.0011
585.6,-0.0012
584.8,-0.0009
584.0,-0.0014
583.2,-0.0019
582.4,-0.0021
581.6,-0.0021
580.8,-0.0019
580.0,-0.0026