File: Figure1/UV-vis/Sample336.Sample.csv
Created as New Dataset,
nm,A
800.0,0.0005
799.2,-0.0001
798.4,-0.0002
797.6,-0.0008
796.8,-0.0000
796.0,0.0004
795.2,0.0010
794.4,-0.0006
793.6,0.0007
792.8,-0.0002
792.0,0.0005
791.2,0.0001
790.4,-0.0014
789.6,-0.0006
788.8,-0.0003
788.0,-0.0005
787.2,-0.0002
786.4,-0.0001
785.6,-0.0008
784.8,-0.0006
784.0,0.0003
783.2,0.0006
782.4,-0.0001
781.6,-0.0015
780.8,-0.0005
780.0,-0.0005
779.2,0.0006
778.4,-0.0015
777.6,-0.0000
776.8,0.0003
776.0,-0.0000
775.2,0.0002
774.4,-0.0004
773.6,0.0002
772.8,-0.0003
772.0,0.0004
771.2,-0.0002
770.4,-0.0010
769.6,0.0002
768.8,0.0004
768.0,0.0010
767.2,0.0003
766.4,0.0003
765.6,0.0001
764.8,0.0006
764.0,0.0007
763.2,0.0009
762.4,0.0013
761.6,0.0006
760.8,0.0009
760.0,0.0012
759.2,0.0013
758.4,0.0010
757.6,0.0007
756.8,0.0014
756.0,0.0009
755.2,0.0007
754.4,0.0005
753.6,0.0009
752.8,0.0022
752.0,0.0005
751.2,0.0013
750.4,0.0019
749.6,0.0013
748.8,0.0017
748.0,0.0010
747.2,0.0021
746.4,0.0016
745.6,0.0019
744.8,0.0016
744.0,0.0016
743.2,0.0023
742.4,0.0020
741.6,0.0014
740.8,0.0020
740.0,0.0012
739.2,0.0009
738.4,0.0012
737.6,0.0015
736.8,0.0019
736.0,0.0015
735.2,0.0018
734.4,0.0011
733.6,0.0017
732.8,0.0007
732.0,0.0008
731.2,0.0021
730.4,0.0017
729.6,0.0018
728.8,0.0014
728.0,0.0018
727.2,0.0010
726.4,0.0018
725.6,0.0014
724.8,0.0015
724.0,0.0009
723.2,0.0021
722.4,0.0019
721.6,0.0014
720.8,0.0017
720.0,0.0016
719.2,0.0013
718.4,0.0023
717.6,0.0018
716.8,0.0023
716.0,0.0019
715.2,0.0024
714.4,0.0023
713.6,0.0022
712.8,0.0027
712.0,0.0029
711.2,0.0033
710.4,0.0029
709.6,0.0033
708.8,0.0032
708.0,0.0028
707.2,0.0032
706.4,0.0033
705.6,0.0036
704.8,0.0039
704.0,0.0035
703.2,0.0039
702.4,0.0038
701.6,0.0041
700.8,0.0035
700.0,0.0039
699.2,0.0035
698.4,0.0037
697.6,0.0037
696.8,0.0044
696.0,0.0042
695.2,0.0037
694.4,0.0038
693.6,0.0039
692.8,0.0039
692.0,0.0041
691.2,0.0041
690.4,0.0041
689.6,0.0039
688.8,0.0050
688.0,0.0045
687.2,0.0045
686.4,0.0052
685.6,0.0046
684.8,0.0049
684.0,0.0053
683.2,0.0052
682.4,0.0047
681.6,0.0057
680.8,0.0053
680.0,0.0051
679.2,0.0051
678.4,0.0062
677.6,0.0059
676.8,0.0057
676.0,0.0062
675.2,0.0063
674.4,0.0066
673.6,0.0062
672.8,0.0065
672.0,0.0069
671.2,0.0070
670.4,0.0069
669.6,0.0066
668.8,0.0071
668.0,0.0076
667.2,0.0075
666.4,0.0075
665.6,0.0076
664.8,0.0078
664.0,0.0076
663.2,0.0073
662.4,0.0071
661.6,0.0079
660.8,0.0069
660.0,0.0076
659.2,0.0077
658.4,0.0075
657.6,0.0069
656.8,0.0067
656.0,0.0072
655.2,0.0066
654.4,0.0069
653.6,0.0063
652.8,0.0060
652.0,0.0064
651.2,0.0067
650.4,0.0065
649.6,0.0062
648.8,0.0057
648.0,0.0063
647.2,0.0056
646.4,0.0057
645.6,0.0055
644.8,0.0062
644.0,0.0059
643.2,0.0057
642.4,0.0057
641.6,0.0052
640.8,0.0059
640.0,0.0052
639.2,0.0056
638.4,0.0051
637.6,0.0046
636.8,0.0055
636.0,0.0049
635.2,0.0054
634.4,0.0048
633.6,0.0051
632.8,0.0052
632.0,0.0050
631.2,0.0051
630.4,0.0046
629.6,0.0048
628.8,0.0051
628.0,0.0052
627.2,0.0054
626.4,0.0052
625.6,0.0047
624.8,0.0050
624.0,0.0051
623.2,0.0048
622.4,0.0045
621.6,0.0049
620.8,0.0051
620.0,0.0048
619.2,0.0046
618.4,0.0042
617.6,0.0047
616.8,0.0040
616.0,0.0044
615.2,0.0044
614.4,0.0048
613.6,0.0039
612.8,0.0040
612.0,0.0040
611.2,0.0038
610.4,0.0036
609.6,0.0037
608.8,0.0035
608.0,0.0036
607.2,0.0030
606.4,0.0028
605.6,0.0029
604.8,0.0027
604.0,0.0026
603.2,0.0023
602.4,0.0024
601.6,0.0020
600.8,0.0018
600.0,0.0019
599.2,0.0015
598.4,0.0013
597.6,0.0012
596.8,0.0008
596.0,0.0005
595.2,0.0002
594.4,0.0007
593.6,-0.0003
592.8,-0.0001
592.0,-0.0003
591.2,-0.0007
590.4,-0.0004
589.6,-0.0009
588.8,-0.0011
588.0,-0.0010
587.2,-0.0013
586.4,-0.0014
585.6,-0.0020
584.8,-0.0019
584.0,-0.0020
583.2,-0.0023
582.4,-0.0028
581.6,-0.0030
580.8,-0.0029
580.0,-0.0030