File: Figure1/UV-vis/Sample334.Sample.csv
Created as New Dataset,
nm,A
800.0,-0.0003
799.2,-0.0012
798.4,-0.0008
797.6,-0.0027
796.8,-0.0016
796.0,-0.0017
795.2,-0.0011
794.4,-0.0015
793.6,-0.0013
792.8,-0.0019
792.0,-0.0017
791.2,-0.0012
790.4,-0.0017
789.6,-0.0023
788.8,-0.0016
788.0,-0.0017
787.2,-0.0011
786.4,-0.0013
785.6,-0.0018
784.8,-0.0007
784.0,-0.0013
783.2,-0.0018
782.4,-0.0018
781.6,-0.0021
780.8,-0.0024
780.0,-0.0018
779.2,-0.0015
778.4,-0.0021
777.6,-0.0009
776.8,-0.0022
776.0,-0.0024
775.2,-0.0010
774.4,-0.0018
773.6,-0.0013
772.8,-0.0015
772.0,-0.0016
771.2,-0.0024
770.4,-0.0022
769.6,-0.0021
768.8,-0.0008
768.0,-0.0007
767.2,-0.0012
766.4,-0.0007
765.6,-0.0012
764.8,-0.0007
764.0,-0.0008
763.2,-0.0006
762.4,-0.0001
761.6,-0.0002
760.8,-0.0001
760.0,0.0002
759.2,0.0001
758.4,-0.0005
757.6,-0.0004
756.8,-0.0002
756.0,-0.0005
755.2,-0.0002
754.4,-0.0000
753.6,-0.0007
752.8,0.0004
752.0,-0.0002
751.2,-0.0004
750.4,0.0001
749.6,0.0001
748.8,-0.0005
748.0,-0.0001
747.2,0.0007
746.4,-0.0004
745.6,0.0005
744.8,-0.0002
744.0,0.0001
743.2,0.0008
742.4,-0.0001
741.6,0.0003
740.8,0.0004
740.0,0.0001
739.2,-0.0001
738.4,0.0008
737.6,0.0007
736.8,0.0004
736.0,0.0005
735.2,0.0007
734.4,0.0005
733.6,0.0002
732.8,-0.0003
732.0,0.0006
731.2,0.0005
730.4,0.0006
729.6,0.0005
728.8,0.0003
728.0,-0.0001
727.2,0.0002
726.4,0.0008
725.6,-0.0000
724.8,0.0002
724.0,0.0001
723.2,0.0005
722.4,0.0003
721.6,0.0002
720.8,0.0005
720.0,0.0003
719.2,0.0002
718.4,0.0008
717.6,0.0003
716.8,0.0011
716.0,0.0010
715.2,0.0010
714.4,0.0012
713.6,0.0010
712.8,0.0012
712.0,0.0019
711.2,0.0020
710.4,0.0017
709.6,0.0018
708.8,0.0015
708.0,0.0025
707.2,0.0017
706.4,0.0021
705.6,0.0028
704.8,0.0029
704.0,0.0027
703.2,0.0026
702.4,0.0025
701.6,0.0031
700.8,0.0027
700.0,0.0028
699.2,0.0023
698.4,0.0026
697.6,0.0023
696.8,0.0033
696.0,0.0024
695.2,0.0022
694.4,0.0024
693.6,0.0027
692.8,0.0029
692.0,0.0031
691.2,0.0030
690.4,0.0030
689.6,0.0031
688.8,0.0038
688.0,0.0029
687.2,0.0036
686.4,0.0037
685.6,0.0038
684.8,0.0039
684.0,0.0036
683.2,0.0040
682.4,0.0043
681.6,0.0040
680.8,0.0040
680.0,0.0044
679.2,0.0046
678.4,0.0041
677.6,0.0048
676.8,0.0045
676.0,0.0051
675.2,0.0048
674.4,0.0048
673.6,0.0052
672.8,0.0054
672.0,0.0049
671.2,0.0060
670.4,0.0059
669.6,0.0057
668.8,0.0062
668.0,0.0062
667.2,0.0065
666.4,0.0062
665.6,0.0067
664.8,0.0063
664.0,0.0061
663.2,0.0065
662.4,0.0062
661.6,0.0061
660.8,0.0058
660.0,0.0063
659.2,0.0061
658.4,0.0063
657.6,0.0057
656.8,0.0059
656.0,0.0057
655.2,0.0054
654.4,0.0058
653.6,0.0049
652.8,0.0048
652.0,0.0049
651.2,0.0053
650.4,0.0057
649.6,0.0045
648.8,0.0048
648.0,0.0049
647.2,0.0048
646.4,0.0048
645.6,0.0042
644.8,0.0046
644.0,0.0044
643.2,0.0043
642.4,0.0043
641.6,0.0040
640.8,0.0042
640.0,0.0040
639.2,0.0042
638.4,0.0046
637.6,0.0041
636.8,0.0044
636.0,0.0037
635.2,0.0041
634.4,0.0042
633.6,0.0042
632.8,0.0044
632.0,0.0037
631.2,0.0035
630.4,0.0036
629.6,0.0037
628.8,0.0038
628.0,0.0042
627.2,0.0042
626.4,0.0037
625.6,0.0037
624.8,0.0039
624.0,0.0038
623.2,0.0039
622.4,0.0036
621.6,0.0036
620.8,0.0037
620.0,0.0035
619.2,0.0037
618.4,0.0032
617.6,0.0033
616.8,0.0031
616.0,0.0030
615.2,0.0030
614.4,0.0034
613.6,0.0027
612.8,0.0029
612.0,0.0029
611.2,0.0024
610.4,0.0024
609.6,0.0023
608.8,0.0024
608.0,0.0023
607.2,0.0016
606.4,0.0019
605.6,0.0015
604.8,0.0014
604.0,0.0010
603.2,0.0008
602.4,0.0012
601.6,0.0009
600.8,0.0006
600.0,0.0003
599.2,0.0002
598.4,0.0002
597.6,0.0000
596.8,-0.0006
596.0,-0.0006
595.2,-0.0008
594.4,-0.0007
593.6,-0.0011
592.8,-0.0010
592.0,-0.0010
591.2,-0.0016
590.4,-0.0018
589.6,-0.0021
588.8,-0.0023
588.0,-0.0019
587.2,-0.0027
586.4,-0.0026
585.6,-0.0031
584.8,-0.0030
584.0,-0.0037
583.2,-0.0035
582.4,-0.0040
581.6,-0.0042
580.8,-0.0038
580.0,-0.0040