File: Figure1/UV-vis/Sample342.Sample.csv
Created as New Dataset,
nm,A
800.0,0.0045
799.2,0.0038
798.4,0.0050
797.6,0.0042
796.8,0.0039
796.0,0.0044
795.2,0.0045
794.4,0.0044
793.6,0.0042
792.8,0.0034
792.0,0.0041
791.2,0.0046
790.4,0.0037
789.6,0.0033
788.8,0.0036
788.0,0.0046
787.2,0.0043
786.4,0.0044
785.6,0.0041
784.8,0.0050
784.0,0.0046
783.2,0.0045
782.4,0.0043
781.6,0.0032
780.8,0.0043
780.0,0.0044
779.2,0.0048
778.4,0.0039
777.6,0.0047
776.8,0.0041
776.0,0.0041
775.2,0.0055
774.4,0.0040
773.6,0.0040
772.8,0.0051
772.0,0.0046
771.2,0.0041
770.4,0.0043
769.6,0.0038
768.8,0.0057
768.0,0.0055
767.2,0.0046
766.4,0.0049
765.6,0.0049
764.8,0.0050
764.0,0.0044
763.2,0.0044
762.4,0.0056
761.6,0.0050
760.8,0.0049
760.0,0.0053
759.2,0.0045
758.4,0.0054
757.6,0.0047
756.8,0.0052
756.0,0.0052
755.2,0.0052
754.4,0.0045
753.6,0.0052
752.8,0.0058
752.0,0.0047
751.2,0.0050
750.4,0.0064
749.6,0.0055
748.8,0.0049
748.0,0.0054
747.2,0.0052
746.4,0.0048
745.6,0.0059
744.8,0.0049
744.0,0.0050
743.2,0.0057
742.4,0.0057
741.6,0.0056
740.8,0.0051
740.0,0.0053
739.2,0.0056
738.4,0.0051
737.6,0.0054
736.8,0.0054
736.0,0.0056
735.2,0.0058
734.4,0.0068
733.6,0.0056
732.8,0.0053
732.0,0.0053
731.2,0.0059
730.4,0.0060
729.6,0.0062
728.8,0.0059
728.0,0.0058
727.2,0.0059
726.4,0.0059
725.6,0.0059
724.8,0.0057
724.0,0.0056
723.2,0.0060
722.4,0.0061
721.6,0.0062
720.8,0.0061
720.0,0.0059
719.2,0.0065
718.4,0.0066
717.6,0.0062
716.8,0.0067
716.0,0.0061
715.2,0.0063
714.4,0.0064
713.6,0.0063
712.8,0.0064
712.0,0.0067
711.2,0.0071
710.4,0.0066
709.6,0.0065
708.8,0.0062
708.0,0.0068
707.2,0.0069
706.4,0.0067
705.6,0.0069
704.8,0.0073
704.0,0.0067
703.2,0.0067
702.4,0.0072
701.6,0.0075
700.8,0.0066
700.0,0.0071
699.2,0.0066
698.4,0.0071
697.6,0.0067
696.8,0.0075
696.0,0.0073
695.2,0.0069
694.4,0.0070
693.6,0.0071
692.8,0.0069
692.0,0.0074
691.2,0.0076
690.4,0.0074
689.6,0.0076
688.8,0.0083
688.0,0.0076
687.2,0.0080
686.4,0.0079
685.6,0.0081
684.8,0.0082
684.0,0.0088
683.2,0.0082
682.4,0.0084
681.6,0.0087
680.8,0.0087
680.0,0.0082
679.2,0.0087
678.4,0.0090
677.6,0.0086
676.8,0.0088
676.0,0.0091
675.2,0.0089
674.4,0.0086
673.6,0.0091
672.8,0.0089
672.0,0.0090
671.2,0.0092
670.4,0.0092
669.6,0.0090
668.8,0.0096
668.0,0.0100
667.2,0.0099
666.4,0.0096
665.6,0.0099
664.8,0.0093
664.0,0.0096
663.2,0.0092
662.4,0.0093
661.6,0.0098
660.8,0.0090
660.0,0.0098
659.2,0.0097
658.4,0.0091
657.6,0.0089
656.8,0.0090
656.0,0.0088
655.2,0.0086
654.4,0.0089
653.6,0.0085
652.8,0.0088
652.0,0.0088
651.2,0.0089
650.4,0.0088
649.6,0.0086
648.8,0.0083
648.0,0.0087
647.2,0.0085
646.4,0.0089
645.6,0.0083
644.8,0.0085
644.0,0.0082
643.2,0.0082
642.4,0.0085
641.6,0.0082
640.8,0.0086
640.0,0.0080
639.2,0.0079
638.4,0.0080
637.6,0.0079
636.8,0.0085
636.0,0.0079
635.2,0.0082
634.4,0.0081
633.6,0.0082
632.8,0.0085
632.0,0.0083
631.2,0.0079
630.4,0.0080
629.6,0.0079
628.8,0.0082
628.0,0.0085
627.2,0.0088
626.4,0.0085
625.6,0.0081
624.8,0.0083
624.0,0.0081
623.2,0.0081
622.4,0.0082
621.6,0.0084
620.8,0.0084
620.0,0.0085
619.2,0.0083
618.4,0.0078
617.6,0.0080
616.8,0.0079
616.0,0.0078
615.2,0.0078
614.4,0.0087
613.6,0.0078
612.8,0.0075
612.0,0.0075
611.2,0.0076
610.4,0.0073
609.6,0.0073
608.8,0.0079
608.0,0.0076
607.2,0.0069
606.4,0.0070
605.6,0.0066
604.8,0.0069
604.0,0.0066
603.2,0.0063
602.4,0.0064
601.6,0.0064
600.8,0.0061
600.0,0.0062
599.2,0.0064
598.4,0.0059
597.6,0.0058
596.8,0.0056
596.0,0.0055
595.2,0.0053
594.4,0.0052
593.6,0.0054
592.8,0.0049
592.0,0.0052
591.2,0.0047
590.4,0.0045
589.6,0.0047
588.8,0.0047
588.0,0.0044
587.2,0.0049
586.4,0.0040
585.6,0.0038
584.8,0.0042
584.0,0.0037
583.2,0.0036
582.4,0.0032
581.6,0.0033
580.8,0.0034
580.0,0.0033