File: Figure1/UV-vis/Sample346.Sample.csv
Created as New Dataset,
nm,A
800.0,0.0070
799.2,0.0073
798.4,0.0075
797.6,0.0065
796.8,0.0070
796.0,0.0072
795.2,0.0072
794.4,0.0069
793.6,0.0065
792.8,0.0076
792.0,0.0072
791.2,0.0069
790.4,0.0073
789.6,0.0072
788.8,0.0066
788.0,0.0065
787.2,0.0068
786.4,0.0073
785.6,0.0067
784.8,0.0077
784.0,0.0077
783.2,0.0067
782.4,0.0079
781.6,0.0070
780.8,0.0063
780.0,0.0073
779.2,0.0077
778.4,0.0070
777.6,0.0075
776.8,0.0075
776.0,0.0075
775.2,0.0072
774.4,0.0074
773.6,0.0072
772.8,0.0074
772.0,0.0078
771.2,0.0071
770.4,0.0064
769.6,0.0067
768.8,0.0077
768.0,0.0076
767.2,0.0077
766.4,0.0078
765.6,0.0077
764.8,0.0079
764.0,0.0072
763.2,0.0077
762.4,0.0076
761.6,0.0077
760.8,0.0072
760.0,0.0080
759.2,0.0080
758.4,0.0078
757.6,0.0079
756.8,0.0076
756.0,0.0074
755.2,0.0083
754.4,0.0079
753.6,0.0081
752.8,0.0089
752.0,0.0074
751.2,0.0078
750.4,0.0088
749.6,0.0086
748.8,0.0077
748.0,0.0074
747.2,0.0079
746.4,0.0079
745.6,0.0084
744.8,0.0078
744.0,0.0084
743.2,0.0085
742.4,0.0084
741.6,0.0086
740.8,0.0085
740.0,0.0078
739.2,0.0087
738.4,0.0086
737.6,0.0087
736.8,0.0092
736.0,0.0085
735.2,0.0089
734.4,0.0087
733.6,0.0083
732.8,0.0083
732.0,0.0085
731.2,0.0094
730.4,0.0095
729.6,0.0087
728.8,0.0090
728.0,0.0095
727.2,0.0087
726.4,0.0094
725.6,0.0093
724.8,0.0085
724.0,0.0083
723.2,0.0090
722.4,0.0088
721.6,0.0095
720.8,0.0096
720.0,0.0094
719.2,0.0085
718.4,0.0095
717.6,0.0089
716.8,0.0093
716.0,0.0090
715.2,0.0093
714.4,0.0090
713.6,0.0091
712.8,0.0098
712.0,0.0100
711.2,0.0099
710.4,0.0099
709.6,0.0098
708.8,0.0095
708.0,0.0102
707.2,0.0096
706.4,0.0099
705.6,0.0106
704.8,0.0108
704.0,0.0101
703.2,0.0104
702.4,0.0108
701.6,0.0111
700.8,0.0101
700.0,0.0106
699.2,0.0103
698.4,0.0106
697.6,0.0107
696.8,0.0115
696.0,0.0112
695.2,0.0112
694.4,0.0110
693.6,0.0110
692.8,0.0113
692.0,0.0119
691.2,0.0113
690.4,0.0117
689.6,0.0116
688.8,0.0118
688.0,0.0113
687.2,0.0119
686.4,0.0124
685.6,0.0120
684.8,0.0122
684.0,0.0121
683.2,0.0125
682.4,0.0129
681.6,0.0134
680.8,0.0129
680.0,0.0124
679.2,0.0130
678.4,0.0134
677.6,0.0135
676.8,0.0137
676.0,0.0140
675.2,0.0140
674.4,0.0144
673.6,0.0139
672.8,0.0142
672.0,0.0144
671.2,0.0149
670.4,0.0144
669.6,0.0143
668.8,0.0152
668.0,0.0151
667.2,0.0154
666.4,0.0147
665.6,0.0153
664.8,0.0147
664.0,0.0151
663.2,0.0145
662.4,0.0143
661.6,0.0147
660.8,0.0137
660.0,0.0146
659.2,0.0148
658.4,0.0143
657.6,0.0141
656.8,0.0141
656.0,0.0137
655.2,0.0137
654.4,0.0140
653.6,0.0131
652.8,0.0137
652.0,0.0134
651.2,0.0135
650.4,0.0135
649.6,0.0136
648.8,0.0131
648.0,0.0135
647.2,0.0132
646.4,0.0135
645.6,0.0130
644.8,0.0136
644.0,0.0134
643.2,0.0131
642.4,0.0137
641.6,0.0135
640.8,0.0141
640.0,0.0137
639.2,0.0133
638.4,0.0140
637.6,0.0134
636.8,0.0144
636.0,0.0137
635.2,0.0141
634.4,0.0139
633.6,0.0142
632.8,0.0145
632.0,0.0142
631.2,0.0142
630.4,0.0143
629.6,0.0146
628.8,0.0146
628.0,0.0151
627.2,0.0152
626.4,0.0149
625.6,0.0148
624.8,0.0153
624.0,0.0151
623.2,0.0152
622.4,0.0151
621.6,0.0151
620.8,0.0158
620.0,0.0154
619.2,0.0155
618.4,0.0155
617.6,0.0156
616.8,0.0153
616.0,0.0153
615.2,0.0150
614.4,0.0154
613.6,0.0150
612.8,0.0150
612.0,0.0151
611.2,0.0145
610.4,0.0144
609.6,0.0148
608.8,0.0147
608.0,0.0149
607.2,0.0139
606.4,0.0142
605.6,0.0140
604.8,0.0139
604.0,0.0137
603.2,0.0134
602.4,0.0136
601.6,0.0133
600.8,0.0131
600.0,0.0130
599.2,0.0129
598.4,0.0129
597.6,0.0127
596.8,0.0121
596.0,0.0124
595.2,0.0123
594.4,0.0123
593.6,0.0118
592.8,0.0120
592.0,0.0119
591.2,0.0117
590.4,0.0115
589.6,0.0116
588.8,0.0113
588.0,0.0114
587.2,0.0112
586.4,0.0114
585.6,0.0110
584.8,0.0112
584.0,0.0107
583.2,0.0107
582.4,0.0105
581.6,0.0105
580.8,0.0107
580.0,0.0103